Interval	Number of Counts
 0.06189	 0.06189
 0.00403	 0.00403
 0.00403	 0.00403
 0.00436	 0.00436
 0.00403	 0.00403
 0.00370	 0.00370
 0.00403	 0.00403
 0.00436	 0.00436
 0.00468	 0.00468
 0.00501	 0.00501
 0.78262	 0.78262
 0.82470	 0.82470
 0.82339	 0.82339
 0.82372	 0.82372
 0.82536	 0.82536
 0.82174	 0.82174
 0.05236	 0.05236
 0.00501	 0.00501
 0.00436	 0.00436
 0.00436	 0.00436
 0.00436	 0.00436
 0.00403	 0.00403
 0.00436	 0.00436
 0.00403	 0.00403
 0.00468	 0.00468
 0.00436	 0.00436
 0.71028	 0.71028
 0.84279	 0.84279
 0.84542	 0.84542
 0.84805	 0.84805
 0.84706	 0.84706
 0.85429	 0.85429
 0.05302	 0.05302
 0.00436	 0.00436
 0.00436	 0.00436
 0.00468	 0.00468
 0.00403	 0.00403
 0.00403	 0.00403
 0.00468	 0.00468
 0.00403	 0.00403
 0.00403	 0.00403
 0.00436	 0.00436
 0.74119	 0.74119
 0.85166	 0.85166
 0.84805	 0.84805
 0.84772	 0.84772
 0.84673	 0.84673
 0.84476	 0.84476
 0.09642	 0.09642
 0.00468	 0.00468
 0.00436	 0.00436
 0.00436	 0.00436
 0.00436	 0.00436
 0.00436	 0.00436
 0.00468	 0.00468
 0.00468	 0.00468
 0.00534	 0.00534
 0.00436	 0.00436
 0.71817	 0.71817
 0.82569	 0.82569
 0.82372	 0.82372
 0.82372	 0.82372
 0.82667	 0.82667
 0.82503	 0.82503
 0.08820	 0.08820
 0.00468	 0.00468
 0.00501	 0.00501
 0.00468	 0.00468
 0.00468	 0.00468
 0.00403	 0.00403
 0.00436	 0.00436
 0.00436	 0.00436
 0.00436	 0.00436
 0.00468	 0.00468
 0.60901	 0.60901
 0.80760	 0.80760
 0.80695	 0.80695
 0.80530	 0.80530
 0.80169	 0.80169
 0.79708	 0.79708
 0.03789	 0.03789
 0.00468	 0.00468
 0.00403	 0.00403
 0.00436	 0.00436
 0.00403	 0.00403
 0.00403	 0.00403
 0.00436	 0.00436
 0.00403	 0.00403
 0.00468	 0.00468
 0.00436	 0.00436
 0.40056	 0.40056
 0.77045	 0.77045
 0.76618	 0.76618
 0.76026	 0.76026
 0.76026	 0.76026
 0.75829	 0.75829
 0.17040	 0.17040
 0.00468	 0.00468
 0.00468	 0.00468
 0.00403	 0.00403
 0.00468	 0.00468
 0.00468	 0.00468
 0.00436	 0.00436
 0.00403	 0.00403
 0.00403	 0.00403
 0.00436	 0.00436
 0.35880	 0.35880
 0.73626	 0.73626
 0.73428	 0.73428
 0.73264	 0.73264
 0.72902	 0.72902
 0.72705	 0.72705
 0.23090	 0.23090
 0.00468	 0.00468
 0.00436	 0.00436
 0.00468	 0.00468
 0.00436	 0.00436
 0.00403	 0.00403
 0.00468	 0.00468
 0.00436	 0.00436
 0.00436	 0.00436
 0.00436	 0.00436
 0.27594	 0.27594
 0.71686	 0.71686
 0.71587	 0.71587
 0.71390	 0.71390
 0.71291	 0.71291
 0.71061	 0.71061
 0.30455	 0.30455
 0.00534	 0.00534
 0.00436	 0.00436
 0.00468	 0.00468
 0.00436	 0.00436
 0.00436	 0.00436
 0.00436	 0.00436
 0.00468	 0.00468
 0.00468	 0.00468
 0.00403	 0.00403
 0.23747	 0.23747
 0.71028	 0.71028
 0.71061	 0.71061
 0.71061	 0.71061
 0.71258	 0.71258
 0.71291	 0.71291
 0.41436	 0.41436
 0.00666	 0.00666
 0.00468	 0.00468
 0.00501	 0.00501
 0.00436	 0.00436
 0.00468	 0.00468
 0.00403	 0.00403
 0.00403	 0.00403
 0.00403	 0.00403
 0.00436	 0.00436
 0.17566	 0.17566
 0.71192	 0.71192
 0.71160	 0.71160
 0.71127	 0.71127
 0.71028	 0.71028
 0.70962	 0.70962
 0.47749	 0.47749
 0.00600	 0.00600
 0.00436	 0.00436
 0.00436	 0.00436
 0.00403	 0.00403
 0.00436	 0.00436
 0.00436	 0.00436
 0.00436	 0.00436
 0.00501	 0.00501
 0.00436	 0.00436
 0.04315	 0.04315
 0.70568	 0.70568
 0.70436	 0.70436
 0.70535	 0.70535
 0.70732	 0.70732
 0.70568	 0.70568
 0.45415	 0.45415
 0.00567	 0.00567
 0.00436	 0.00436
 0.00436	 0.00436
 0.00403	 0.00403
 0.00403	 0.00403
 0.00436	 0.00436
 0.00436	 0.00436
 0.00436	 0.00436
 0.00403	 0.00403
 0.04250	 0.04250
 0.69088	 0.69088
 0.69022	 0.69022
 0.68924	 0.68924
 0.68858	 0.68858
 0.68595	 0.68595
 0.50511	 0.50511
 0.00830	 0.00830
 0.00403	 0.00403
 0.00436	 0.00436
 0.00403	 0.00403
 0.00403	 0.00403
 0.00436	 0.00436
 0.00436	 0.00436
 0.00436	 0.00436
 0.00468	 0.00468
 0.05072	 0.05072
 0.67346	 0.67346
 0.67378	 0.67378
 0.66918	 0.66918
 0.66754	 0.66754
 0.66556	 0.66556
 0.47716	 0.47716
 0.00731	 0.00731
 0.00436	 0.00436
 0.00468	 0.00468
 0.00468	 0.00468
 0.00501	 0.00501
 0.00436	 0.00436
 0.00436	 0.00436
 0.00436	 0.00436
 0.00468	 0.00468
 0.02638	 0.02638
 0.66261	 0.66261
 0.66425	 0.66425
 0.66392	 0.66392
 0.66589	 0.66589
 0.66392	 0.66392
 0.40056	 0.40056
 0.00567	 0.00567
 0.00468	 0.00468
 0.00501	 0.00501
 0.00436	 0.00436
 0.00403	 0.00403
 0.00436	 0.00436
 0.00403	 0.00403
 0.00403	 0.00403
 0.00403	 0.00403
 0.00929	 0.00929
 0.66326	 0.66326
 0.67115	 0.67115
 0.67313	 0.67313
 0.67378	 0.67378
 0.67477	 0.67477
 0.60901	 0.60901
 0.00962	 0.00962
 0.00436	 0.00436
 0.00403	 0.00403
 0.00370	 0.00370
 0.00468	 0.00468
 0.00468	 0.00468
 0.00468	 0.00468
 0.00436	 0.00436
 0.00468	 0.00468
 0.00962	 0.00962
 0.69450	 0.69450
 0.70042	 0.70042
 0.69910	 0.69910
 0.70140	 0.70140
 0.70436	 0.70436
 0.67050	 0.67050
 0.01290	 0.01290
 0.00436	 0.00436
 0.00468	 0.00468
 0.00468	 0.00468
 0.00436	 0.00436
 0.00436	 0.00436
 0.00436	 0.00436
 0.00436	 0.00436
 0.00403	 0.00403
 0.00731	 0.00731
 0.72146	 0.72146
 0.73231	 0.73231
 0.73395	 0.73395
 0.73658	 0.73658
 0.73790	 0.73790
 0.72705	 0.72705
 0.01586	 0.01586
 0.00436	 0.00436
 0.00436	 0.00436
 0.00403	 0.00403
 0.00403	 0.00403
 0.00436	 0.00436
 0.00468	 0.00468
 0.00403	 0.00403
 0.00468	 0.00468
 0.00600	 0.00600
 0.74875	 0.74875
 0.75763	 0.75763
 0.75993	 0.75993
 0.76223	 0.76223
 0.76453	 0.76453
 0.76848	 0.76848
 0.03165	 0.03165
 0.00468	 0.00468
 0.00436	 0.00436
 0.00436	 0.00436
 0.00403	 0.00403
 0.00436	 0.00436
 0.00436	 0.00436
 0.00468	 0.00468
 0.00436	 0.00436
 0.00567	 0.00567
 0.77440	 0.77440
 0.79051	 0.79051
 0.79215	 0.79215
 0.79314	 0.79314
 0.79412	 0.79412
 0.77867	 0.77867
 0.02737	 0.02737
 0.00501	 0.00501
 0.00403	 0.00403
 0.00468	 0.00468
 0.00436	 0.00436
 0.00468	 0.00468
 0.00370	 0.00370
 0.00468	 0.00468
 0.00403	 0.00403
 0.00436	 0.00436
 0.76190	 0.76190
 0.81747	 0.81747
 0.81780	 0.81780
 0.81813	 0.81813
 0.81813	 0.81813
 0.83128	 0.83128
 0.02836	 0.02836
 0.00403	 0.00403
 0.00436	 0.00436
 0.00403	 0.00403
 0.00468	 0.00468
 0.00468	 0.00468
 0.00468	 0.00468
 0.00370	 0.00370
 0.00436	 0.00436
 0.00468	 0.00468
 0.77637	 0.77637
 0.82240	 0.82240
 0.82076	 0.82076
 0.82174	 0.82174
 0.82109	 0.82109
 0.82503	 0.82503
 0.05236	 0.05236
 0.00468	 0.00468
 0.00403	 0.00403
 0.00403	 0.00403
 0.00436	 0.00436
 0.00403	 0.00403
 0.00436	 0.00436
 0.00370	 0.00370
 0.00436	 0.00436
 0.00436	 0.00436
 0.76453	 0.76453
 0.82339	 0.82339
 0.81977	 0.81977
 0.81977	 0.81977
 0.81845	 0.81845
 0.82602	 0.82602
 0.04447	 0.04447
 0.00468	 0.00468
 0.00436	 0.00436
 0.00436	 0.00436
 0.00370	 0.00370
 0.00403	 0.00403
 0.00436	 0.00436
 0.00436	 0.00436
 0.00468	 0.00468
 0.00436	 0.00436
 0.75697	 0.75697
 0.81648	 0.81648
 0.81484	 0.81484
 0.81287	 0.81287
 0.81122	 0.81122
 0.80892	 0.80892
 0.02244	 0.02244
 0.00534	 0.00534
 0.00403	 0.00403
 0.00436	 0.00436
 0.00436	 0.00436
 0.00436	 0.00436
 0.00501	 0.00501
 0.00468	 0.00468
 0.00436	 0.00436
 0.00403	 0.00403
 0.63532	 0.63532
 0.80333	 0.80333
 0.80136	 0.80136
 0.80399	 0.80399
 0.80399	 0.80399
 0.80465	 0.80465
 0.09872	 0.09872
 0.00468	 0.00468
 0.00436	 0.00436
 0.00436	 0.00436
 0.00468	 0.00468
 0.00370	 0.00370
 0.00436	 0.00436
 0.00468	 0.00468
 0.00403	 0.00403
 0.00436	 0.00436
 0.62085	 0.62085
 0.80760	 0.80760
 0.80892	 0.80892
 0.80859	 0.80859
 0.80596	 0.80596
 0.80497	 0.80497
 0.14640	 0.14640
 0.00436	 0.00436
 0.00370	 0.00370
 0.00403	 0.00403
 0.00436	 0.00436
 0.00403	 0.00403
 0.00436	 0.00436
 0.00468	 0.00468
 0.00436	 0.00436
 0.00403	 0.00403
 0.55246	 0.55246
 0.80629	 0.80629
 0.80497	 0.80497
 0.80366	 0.80366
 0.80300	 0.80300
 0.80432	 0.80432
 0.20952	 0.20952
 0.00436	 0.00436
 0.00468	 0.00468
 0.00436	 0.00436
 0.00436	 0.00436
 0.00468	 0.00468
 0.00403	 0.00403
 0.00436	 0.00436
 0.00403	 0.00403
 0.00468	 0.00468
 0.50281	 0.50281
 0.81023	 0.81023
 0.81023	 0.81023
 0.81023	 0.81023
 0.81023	 0.81023
 0.81122	 0.81122
 0.31934	 0.31934
 0.00534	 0.00534
 0.00403	 0.00403
 0.00468	 0.00468
 0.00403	 0.00403
 0.00403	 0.00403
 0.00436	 0.00436
 0.00436	 0.00436
 0.00403	 0.00403
 0.00468	 0.00468
 0.39562	 0.39562
 0.81056	 0.81056
 0.80793	 0.80793
 0.80662	 0.80662
 0.80432	 0.80432
 0.80465	 0.80465
 0.37885	 0.37885
 0.00567	 0.00567
 0.00468	 0.00468
 0.00436	 0.00436
 0.00501	 0.00501
 0.00468	 0.00468
 0.00436	 0.00436
 0.00468	 0.00468
 0.00436	 0.00436
 0.00403	 0.00403
 0.11976	 0.11976
 0.80037	 0.80037
 0.79971	 0.79971
 0.79971	 0.79971
 0.79741	 0.79741
 0.79938	 0.79938
 0.36176	 0.36176
 0.00534	 0.00534
 0.00468	 0.00468
 0.00436	 0.00436
 0.00403	 0.00403
 0.00403	 0.00403
 0.00436	 0.00436
 0.00436	 0.00436
 0.00468	 0.00468
 0.00436	 0.00436
 0.11943	 0.11943
 0.78722	 0.78722
 0.78722	 0.78722
 0.78459	 0.78459
 0.78064	 0.78064
 0.77900	 0.77900
 0.42554	 0.42554
 0.00633	 0.00633
 0.00436	 0.00436
 0.00436	 0.00436
 0.00403	 0.00403
 0.00436	 0.00436
 0.00436	 0.00436
 0.00436	 0.00436
 0.00403	 0.00403
 0.00403	 0.00403
 0.12831	 0.12831
 0.76026	 0.76026
 0.75796	 0.75796
 0.75894	 0.75894
 0.75631	 0.75631
 0.75664	 0.75664
 0.42620	 0.42620
 0.00633	 0.00633
 0.00436	 0.00436
 0.00501	 0.00501
 0.00403	 0.00403
 0.00436	 0.00436
 0.00436	 0.00436
 0.00468	 0.00468
 0.00403	 0.00403
 0.00468	 0.00468
 0.06420	 0.06420
 0.74185	 0.74185
 0.74119	 0.74119
 0.74283	 0.74283
 0.74020	 0.74020
 0.73856	 0.73856
 0.29896	 0.29896
 0.00501	 0.00501
 0.00436	 0.00436
 0.00403	 0.00403
 0.00436	 0.00436
 0.00436	 0.00436
 0.00468	 0.00468
 0.00436	 0.00436
 0.00436	 0.00436
 0.00403	 0.00403
 0.02145	 0.02145
 0.71883	 0.71883
 0.71423	 0.71423
 0.71357	 0.71357
 0.71423	 0.71423
 0.71357	 0.71357
 0.56495	 0.56495
 0.00797	 0.00797
 0.00468	 0.00468
 0.00436	 0.00436
 0.00403	 0.00403
 0.00436	 0.00436
 0.00403	 0.00403
 0.00501	 0.00501
 0.00403	 0.00403
 0.00403	 0.00403
 0.01948	 0.01948
 0.73231	 0.73231
 0.73593	 0.73593
 0.73823	 0.73823
 0.74020	 0.74020
 0.74053	 0.74053
 0.63827	 0.63827
 0.00929	 0.00929
 0.00403	 0.00403
 0.00403	 0.00403
 0.00436	 0.00436
 0.00436	 0.00436
 0.00436	 0.00436
 0.00501	 0.00501
 0.00436	 0.00436
 0.00436	 0.00436
 0.01422	 0.01422
 0.77867	 0.77867
 0.78426	 0.78426
 0.78525	 0.78525
 0.78492	 0.78492
 0.78656	 0.78656
 0.73198	 0.73198
 0.01126	 0.01126
 0.00468	 0.00468
 0.00468	 0.00468
 0.00501	 0.00501
 0.00436	 0.00436
 0.00436	 0.00436
 0.00436	 0.00436
 0.00436	 0.00436
 0.00403	 0.00403
 0.01060	 0.01060
 0.78919	 0.78919
 0.79906	 0.79906
 0.79971	 0.79971
 0.79774	 0.79774
 0.80037	 0.80037
 0.78656	 0.78656
 0.02211	 0.02211
 0.00468	 0.00468
 0.00370	 0.00370
 0.00436	 0.00436
 0.00403	 0.00403
 0.00468	 0.00468
 0.00436	 0.00436
 0.00436	 0.00436
 0.00370	 0.00370
 0.00764	 0.00764
 0.78788	 0.78788
 0.79840	 0.79840
 0.80169	 0.80169
 0.79938	 0.79938
 0.79971	 0.79971
 0.77933	 0.77933
 0.01816	 0.01816
 0.00468	 0.00468
 0.00403	 0.00403
 0.00468	 0.00468
 0.00436	 0.00436
 0.00436	 0.00436
 0.00436	 0.00436
 0.00436	 0.00436
 0.00436	 0.00436
 0.00468	 0.00468
 0.76979	 0.76979
 0.80497	 0.80497
 0.80267	 0.80267
 0.80103	 0.80103
 0.80234	 0.80234
 0.81813	 0.81813
 0.02014	 0.02014
 0.00436	 0.00436
 0.00468	 0.00468
 0.00468	 0.00468
 0.00436	 0.00436
 0.00403	 0.00403
 0.00436	 0.00436
 0.00436	 0.00436
 0.00403	 0.00403
 0.00403	 0.00403
 0.75533	 0.75533
 0.78656	 0.78656
 0.78327	 0.78327
 0.77900	 0.77900
 0.78031	 0.78031
 0.78755	 0.78755
 0.03855	 0.03855
 0.00501	 0.00501
 0.00468	 0.00468
 0.00337	 0.00337
 0.00403	 0.00403
 0.00468	 0.00468
 0.00403	 0.00403
 0.00436	 0.00436
 0.00403	 0.00403
 0.00534	 0.00534
 0.72738	 0.72738
 0.75533	 0.75533
 0.75237	 0.75237
 0.74842	 0.74842
 0.74645	 0.74645
 0.74941	 0.74941
 0.03099	 0.03099
 0.00468	 0.00468
 0.00468	 0.00468
 0.00501	 0.00501
 0.00436	 0.00436
 0.00468	 0.00468
 0.00436	 0.00436
 0.00436	 0.00436
 0.00436	 0.00436
 0.00436	 0.00436
 0.70009	 0.70009
 0.72047	 0.72047
 0.71850	 0.71850
 0.71719	 0.71719
 0.71390	 0.71390
 0.71719	 0.71719
 0.01718	 0.01718
 0.00468	 0.00468
 0.00436	 0.00436
 0.00468	 0.00468
 0.00403	 0.00403
 0.00403	 0.00403
 0.00403	 0.00403
 0.00370	 0.00370
 0.00436	 0.00436
 0.00468	 0.00468
 0.60079	 0.60079
 0.69154	 0.69154
 0.68858	 0.68858
 0.68463	 0.68463
 0.68463	 0.68463
 0.68266	 0.68266
 0.06617	 0.06617
 0.00403	 0.00403
 0.00436	 0.00436
 0.00436	 0.00436
 0.00370	 0.00370
 0.00436	 0.00436
 0.00436	 0.00436
 0.00468	 0.00468
 0.00436	 0.00436
 0.00436	 0.00436
 0.55936	 0.55936
 0.66326	 0.66326
 0.66030	 0.66030
 0.66030	 0.66030
 0.66326	 0.66326
 0.66524	 0.66524
 0.09938	 0.09938
 0.00468	 0.00468
 0.00436	 0.00436
 0.00436	 0.00436
 0.00501	 0.00501
 0.00468	 0.00468
 0.00468	 0.00468
 0.00403	 0.00403
 0.00436	 0.00436
 0.00501	 0.00501
 0.50840	 0.50840
 0.65800	 0.65800
 0.66030	 0.66030
 0.65965	 0.65965
 0.65767	 0.65767
 0.66195	 0.66195
 0.14442	 0.14442
 0.00534	 0.00534
 0.00436	 0.00436
 0.00436	 0.00436
 0.00403	 0.00403
 0.00468	 0.00468
 0.00468	 0.00468
 0.00468	 0.00468
 0.00468	 0.00468
 0.00468	 0.00468
 0.48210	 0.48210
 0.66984	 0.66984
 0.66820	 0.66820
 0.66820	 0.66820
 0.66524	 0.66524
 0.66556	 0.66556
 0.23945	 0.23945
 0.00567	 0.00567
 0.00436	 0.00436
 0.00436	 0.00436
 0.00468	 0.00468
 0.00403	 0.00403
 0.00468	 0.00468
 0.00468	 0.00468
 0.00468	 0.00468
 0.00370	 0.00370
 0.39135	 0.39135
 0.66261	 0.66261
 0.66261	 0.66261
 0.66359	 0.66359
 0.66688	 0.66688
 0.66721	 0.66721
 0.27265	 0.27265
 0.00534	 0.00534
 0.00468	 0.00468
 0.00403	 0.00403
 0.00436	 0.00436
 0.00403	 0.00403
 0.00436	 0.00436
 0.00436	 0.00436
 0.00370	 0.00370
 0.00403	 0.00403
 0.14212	 0.14212
 0.66162	 0.66162
 0.66030	 0.66030
 0.65899	 0.65899
 0.65702	 0.65702
 0.65767	 0.65767
 0.25687	 0.25687
 0.00534	 0.00534
 0.00468	 0.00468
 0.00436	 0.00436
 0.00436	 0.00436
 0.00403	 0.00403
 0.00468	 0.00468
 0.00403	 0.00403
 0.00403	 0.00403
 0.00436	 0.00436
 0.14015	 0.14015
 0.64649	 0.64649
 0.64485	 0.64485
 0.64321	 0.64321
 0.64321	 0.64321
 0.64452	 0.64452
 0.31244	 0.31244
 0.00600	 0.00600
 0.00468	 0.00468
 0.00436	 0.00436
 0.00468	 0.00468
 0.00403	 0.00403
 0.00403	 0.00403
 0.00468	 0.00468
 0.00403	 0.00403
 0.00436	 0.00436
 0.15593	 0.15593
 0.63564	 0.63564
 0.63334	 0.63334
 0.63071	 0.63071
 0.63367	 0.63367
 0.63499	 0.63499
 0.31770	 0.31770
 0.00567	 0.00567
 0.00436	 0.00436
 0.00436	 0.00436
 0.00403	 0.00403
 0.00403	 0.00403
 0.00436	 0.00436
 0.00436	 0.00436
 0.00436	 0.00436
 0.00468	 0.00468
 0.08524	 0.08524
 0.62348	 0.62348
 0.61888	 0.61888
 0.61460	 0.61460
 0.61230	 0.61230
 0.61559	 0.61559
 0.20525	 0.20525
 0.00501	 0.00501
 0.00468	 0.00468
 0.00403	 0.00403
 0.00403	 0.00403
 0.00436	 0.00436
 0.00534	 0.00534
 0.00468	 0.00468
 0.00403	 0.00403
 0.00436	 0.00436
 0.03329	 0.03329
 0.60868	 0.60868
 0.60868	 0.60868
 0.60868	 0.60868
 0.60835	 0.60835
 0.60868	 0.60868
 0.44560	 0.44560
 0.00731	 0.00731
 0.00501	 0.00501
 0.00436	 0.00436
 0.00403	 0.00403
 0.00403	 0.00403
 0.00403	 0.00403
 0.00403	 0.00403
 0.00403	 0.00403
 0.00436	 0.00436
 0.03033	 0.03033
 0.61296	 0.61296
 0.61329	 0.61329
 0.61690	 0.61690
 0.61592	 0.61592
 0.61526	 0.61526
 0.50018	 0.50018
 0.00797	 0.00797
 0.00436	 0.00436
 0.00468	 0.00468
 0.00468	 0.00468
 0.00403	 0.00403
 0.00468	 0.00468
 0.00436	 0.00436
 0.00436	 0.00436
 0.00436	 0.00436
 0.01948	 0.01948
 0.62512	 0.62512
 0.63005	 0.63005
 0.62907	 0.62907
 0.63137	 0.63137
 0.63499	 0.63499
 0.57021	 0.57021
 0.00929	 0.00929
 0.00436	 0.00436
 0.00468	 0.00468
 0.00436	 0.00436
 0.00436	 0.00436
 0.00436	 0.00436
 0.00436	 0.00436
 0.00370	 0.00370
 0.00436	 0.00436
 0.01521	 0.01521
 0.65241	 0.65241
 0.65570	 0.65570
 0.66063	 0.66063
 0.66326	 0.66326
 0.66655	 0.66655
 0.64419	 0.64419
 0.01685	 0.01685
 0.00436	 0.00436
 0.00436	 0.00436
 0.00468	 0.00468
 0.00403	 0.00403
 0.00436	 0.00436
 0.00436	 0.00436
 0.00436	 0.00436
 0.00370	 0.00370
 0.01093	 0.01093
 0.66885	 0.66885
 0.67707	 0.67707
 0.67609	 0.67609
 0.67477	 0.67477
 0.67510	 0.67510
 0.64880	 0.64880
 0.01455	 0.01455
 0.00436	 0.00436
 0.00403	 0.00403
 0.00468	 0.00468
 0.00468	 0.00468
 0.00468	 0.00468
 0.00468	 0.00468
 0.00403	 0.00403
 0.00403	 0.00403
 0.00534	 0.00534
 0.66556	 0.66556
 0.68858	 0.68858
 0.68924	 0.68924
 0.69022	 0.69022
 0.69318	 0.69318
 0.70075	 0.70075
 0.01586	 0.01586
 0.00468	 0.00468
 0.00370	 0.00370
 0.00403	 0.00403
 0.00403	 0.00403
 0.00468	 0.00468
 0.00403	 0.00403
 0.00501	 0.00501
 0.00403	 0.00403
 0.00534	 0.00534
 0.68595	 0.68595
 0.70403	 0.70403
 0.70272	 0.70272
 0.70239	 0.70239
 0.70272	 0.70272
 0.70897	 0.70897
 0.02704	 0.02704
 0.00501	 0.00501
 0.00403	 0.00403
 0.00403	 0.00403
 0.00436	 0.00436
 0.00436	 0.00436
 0.00436	 0.00436
 0.00403	 0.00403
 0.00436	 0.00436
 0.00468	 0.00468
 0.68825	 0.68825
 0.70206	 0.70206
 0.70042	 0.70042
 0.69910	 0.69910
 0.69844	 0.69844
 0.69844	 0.69844
 0.02408	 0.02408
 0.00468	 0.00468
 0.00468	 0.00468
 0.00468	 0.00468
 0.00436	 0.00436
 0.00403	 0.00403
 0.00403	 0.00403
 0.00403	 0.00403
 0.00436	 0.00436
 0.00403	 0.00403
 0.69088	 0.69088
 0.70502	 0.70502
 0.70699	 0.70699
 0.70502	 0.70502
 0.70469	 0.70469
 0.71160	 0.71160
 0.01323	 0.01323
 0.00436	 0.00436
 0.00436	 0.00436
 0.00468	 0.00468
 0.00436	 0.00436
 0.00403	 0.00403
 0.00468	 0.00468
 0.00436	 0.00436
 0.00468	 0.00468
 0.00468	 0.00468
 0.65077	 0.65077
 0.70666	 0.70666
 0.70634	 0.70634
 0.70338	 0.70338
 0.70206	 0.70206
 0.70436	 0.70436
 0.04874	 0.04874
 0.00436	 0.00436
 0.00436	 0.00436
 0.00468	 0.00468
 0.00436	 0.00436
 0.00436	 0.00436
 0.00370	 0.00370
 0.00468	 0.00468
 0.00534	 0.00534
 0.00501	 0.00501
 0.65439	 0.65439
 0.72442	 0.72442
 0.72672	 0.72672
 0.72902	 0.72902
 0.73132	 0.73132
 0.73165	 0.73165
 0.07801	 0.07801
 0.00501	 0.00501
 0.00436	 0.00436
 0.00436	 0.00436
 0.00436	 0.00436
 0.00436	 0.00436
 0.00436	 0.00436
 0.00436	 0.00436
 0.00436	 0.00436
 0.00403	 0.00403
 0.65439	 0.65439
 0.74645	 0.74645
 0.74579	 0.74579
 0.74612	 0.74612
 0.74842	 0.74842
 0.75237	 0.75237
 0.11516	 0.11516
 0.00436	 0.00436
 0.00436	 0.00436
 0.00468	 0.00468
 0.00468	 0.00468
 0.00436	 0.00436
 0.00436	 0.00436
 0.00403	 0.00403
 0.00403	 0.00403
 0.00436	 0.00436
 0.64485	 0.64485
 0.77341	 0.77341
 0.77341	 0.77341
 0.77768	 0.77768
 0.77933	 0.77933
 0.78163	 0.78163
 0.21215	 0.21215
 0.00534	 0.00534
 0.00370	 0.00370
 0.00403	 0.00403
 0.00403	 0.00403
 0.00337	 0.00337
 0.00436	 0.00436
 0.00436	 0.00436
 0.00403	 0.00403
 0.00436	 0.00436
 0.58468	 0.58468
 0.80037	 0.80037
 0.79906	 0.79906
 0.79807	 0.79807
 0.79774	 0.79774
 0.79873	 0.79873
 0.23813	 0.23813
 0.00436	 0.00436
 0.00436	 0.00436
 0.00468	 0.00468
 0.00468	 0.00468
 0.00403	 0.00403
 0.00403	 0.00403
 0.00436	 0.00436
 0.00468	 0.00468
 0.00403	 0.00403
 0.24734	 0.24734
 0.79807	 0.79807
 0.79511	 0.79511
 0.79347	 0.79347
 0.79445	 0.79445
 0.79708	 0.79708
 0.22794	 0.22794
 0.00534	 0.00534
 0.00468	 0.00468
 0.00468	 0.00468
 0.00501	 0.00501
 0.00436	 0.00436
 0.00436	 0.00436
 0.00436	 0.00436
 0.00436	 0.00436
 0.00436	 0.00436
 0.24536	 0.24536
 0.79248	 0.79248
 0.79051	 0.79051
 0.78722	 0.78722
 0.78558	 0.78558
 0.78294	 0.78294
 0.30488	 0.30488
 0.00567	 0.00567
 0.00370	 0.00370
 0.00403	 0.00403
 0.00403	 0.00403
 0.00468	 0.00468
 0.00436	 0.00436
 0.00468	 0.00468
 0.00436	 0.00436
 0.00436	 0.00436
 0.25720	 0.25720
 0.77341	 0.77341
 0.77209	 0.77209
 0.77078	 0.77078
 0.76782	 0.76782
 0.76979	 0.76979
 0.31803	 0.31803
 0.00534	 0.00534
 0.00436	 0.00436
 0.00403	 0.00403
 0.00403	 0.00403
 0.00468	 0.00468
 0.00436	 0.00436
 0.00468	 0.00468
 0.00403	 0.00403
 0.00436	 0.00436
 0.13160	 0.13160
 0.75138	 0.75138
 0.74842	 0.74842
 0.74711	 0.74711
 0.74809	 0.74809
 0.75039	 0.75039
 0.17500	 0.17500
 0.00436	 0.00436
 0.00403	 0.00403
 0.00436	 0.00436
 0.00436	 0.00436
 0.00436	 0.00436
 0.00403	 0.00403
 0.00468	 0.00468
 0.00468	 0.00468
 0.00436	 0.00436
 0.05861	 0.05861
 0.73001	 0.73001
 0.72672	 0.72672
 0.72508	 0.72508
 0.72376	 0.72376
 0.72014	 0.72014
 0.46500	 0.46500
 0.00600	 0.00600
 0.00403	 0.00403
 0.00468	 0.00468
 0.00403	 0.00403
 0.00436	 0.00436
 0.00436	 0.00436
 0.00468	 0.00468
 0.00403	 0.00403
 0.00403	 0.00403
 0.04907	 0.04907
 0.71883	 0.71883
 0.71653	 0.71653
 0.71850	 0.71850
 0.71850	 0.71850
 0.72376	 0.72376
 0.53898	 0.53898
 0.00731	 0.00731
 0.00436	 0.00436
 0.00436	 0.00436
 0.00501	 0.00501
 0.00436	 0.00436
 0.00436	 0.00436
 0.00403	 0.00403
 0.00436	 0.00436
 0.00468	 0.00468
 0.03493	 0.03493
 0.76059	 0.76059
 0.76387	 0.76387
 0.76585	 0.76585
 0.76683	 0.76683
 0.77012	 0.77012
 0.64386	 0.64386
 0.00830	 0.00830
 0.00403	 0.00403
 0.00370	 0.00370
 0.00403	 0.00403
 0.00468	 0.00468
 0.00534	 0.00534
 0.00436	 0.00436
 0.00468	 0.00468
 0.00436	 0.00436
 0.02671	 0.02671
 0.78919	 0.78919
 0.78952	 0.78952
 0.78788	 0.78788
 0.78558	 0.78558
 0.78656	 0.78656
 0.72804	 0.72804
 0.01389	 0.01389
 0.00403	 0.00403
 0.00468	 0.00468
 0.00436	 0.00436
 0.00468	 0.00468
 0.00403	 0.00403
 0.00436	 0.00436
 0.00436	 0.00436
 0.00403	 0.00403
 0.01685	 0.01685
 0.78525	 0.78525
 0.78919	 0.78919
 0.78590	 0.78590
 0.78459	 0.78459
 0.78558	 0.78558
 0.73658	 0.73658
 0.01323	 0.01323
 0.00436	 0.00436
 0.00403	 0.00403
 0.00370	 0.00370
 0.00403	 0.00403
 0.00403	 0.00403
 0.00436	 0.00436
 0.00436	 0.00436
 0.00436	 0.00436
 0.00534	 0.00534
 0.77407	 0.77407
 0.78821	 0.78821
 0.78853	 0.78853
 0.78689	 0.78689
 0.78492	 0.78492
 0.78393	 0.78393
 0.01323	 0.01323
 0.00436	 0.00436
 0.00403	 0.00403
 0.00436	 0.00436
 0.00436	 0.00436
 0.00436	 0.00436
 0.00403	 0.00403
 0.00370	 0.00370
 0.00468	 0.00468
 0.00567	 0.00567
 0.76683	 0.76683
 0.77308	 0.77308
 0.76914	 0.76914
 0.76651	 0.76651
 0.76716	 0.76716
 0.76881	 0.76881
 0.02408	 0.02408
 0.00468	 0.00468
 0.00436	 0.00436
 0.00403	 0.00403
 0.00436	 0.00436
 0.00403	 0.00403
 0.00403	 0.00403
 0.00436	 0.00436
 0.00403	 0.00403
 0.00534	 0.00534
 0.73889	 0.73889
 0.74908	 0.74908
 0.74612	 0.74612
 0.74480	 0.74480
 0.74316	 0.74316
 0.73395	 0.73395
 0.01981	 0.01981
 0.00468	 0.00468
 0.00436	 0.00436
 0.00436	 0.00436
 0.00468	 0.00468
 0.00436	 0.00436
 0.00468	 0.00468
 0.00436	 0.00436
 0.00436	 0.00436
 0.00501	 0.00501
 0.71423	 0.71423
 0.72442	 0.72442
 0.71982	 0.71982
 0.71751	 0.71751
 0.71554	 0.71554
 0.71587	 0.71587
 0.01126	 0.01126
 0.00468	 0.00468
 0.00436	 0.00436
 0.00436	 0.00436
 0.00403	 0.00403
 0.00403	 0.00403
 0.00468	 0.00468
 0.00436	 0.00436
 0.00403	 0.00403
 0.00436	 0.00436
 0.65800	 0.65800
 0.70272	 0.70272
 0.70075	 0.70075
 0.69812	 0.69812
 0.69549	 0.69549
 0.69549	 0.69549
 0.03855	 0.03855
 0.00468	 0.00468
 0.00403	 0.00403
 0.00403	 0.00403
 0.00436	 0.00436
 0.00468	 0.00468
 0.00436	 0.00436
 0.00436	 0.00436
 0.00436	 0.00436
 0.00468	 0.00468
 0.63597	 0.63597
 0.68825	 0.68825
 0.68595	 0.68595
 0.68529	 0.68529
 0.68135	 0.68135
 0.67806	 0.67806
 0.05861	 0.05861
 0.00436	 0.00436
 0.00468	 0.00468
 0.00468	 0.00468
 0.00468	 0.00468
 0.00436	 0.00436
 0.00534	 0.00534
 0.00436	 0.00436
 0.00337	 0.00337
 0.00436	 0.00436
 0.63038	 0.63038
 0.68431	 0.68431
 0.68332	 0.68332
 0.68398	 0.68398
 0.68661	 0.68661
 0.69055	 0.69055
 0.08787	 0.08787
 0.00468	 0.00468
 0.00468	 0.00468
 0.00468	 0.00468
 0.00468	 0.00468
 0.00501	 0.00501
 0.00468	 0.00468
 0.00403	 0.00403
 0.00436	 0.00436
 0.00436	 0.00436
 0.61690	 0.61690
 0.70075	 0.70075
 0.70107	 0.70107
 0.70009	 0.70009
 0.70075	 0.70075
 0.70338	 0.70338
 0.16415	 0.16415
 0.00468	 0.00468
 0.00436	 0.00436
 0.00468	 0.00468
 0.00403	 0.00403
 0.00403	 0.00403
 0.00436	 0.00436
 0.00468	 0.00468
 0.00436	 0.00436
 0.00468	 0.00468
 0.56199	 0.56199
 0.70371	 0.70371
 0.70173	 0.70173
 0.70206	 0.70206
 0.70140	 0.70140
 0.70272	 0.70272
 0.17796	 0.17796
 0.00501	 0.00501
 0.00501	 0.00501
 0.00468	 0.00468
 0.00436	 0.00436
 0.00436	 0.00436
 0.00436	 0.00436
 0.00370	 0.00370
 0.00403	 0.00403
 0.00403	 0.00403
 0.27364	 0.27364
 0.70568	 0.70568
 0.70403	 0.70403
 0.70634	 0.70634
 0.70765	 0.70765
 0.70831	 0.70831
 0.16744	 0.16744
 0.00436	 0.00436
 0.00436	 0.00436
 0.00403	 0.00403
 0.00403	 0.00403
 0.00403	 0.00403
 0.00436	 0.00436
 0.00403	 0.00403
 0.00468	 0.00468
 0.00436	 0.00436
 0.28844	 0.28844
 0.69877	 0.69877
 0.69450	 0.69450
 0.69022	 0.69022
 0.68990	 0.68990
 0.69121	 0.69121
 0.23484	 0.23484
 0.00501	 0.00501
 0.00403	 0.00403
 0.00468	 0.00468
 0.00436	 0.00436
 0.00436	 0.00436
 0.00468	 0.00468
 0.00436	 0.00436
 0.00403	 0.00403
 0.00436	 0.00436
 0.30619	 0.30619
 0.69121	 0.69121
 0.69187	 0.69187
 0.69285	 0.69285
 0.69055	 0.69055
 0.68694	 0.68694
 0.24372	 0.24372
 0.00501	 0.00501
 0.00436	 0.00436
 0.00403	 0.00403
 0.00436	 0.00436
 0.00370	 0.00370
 0.00436	 0.00436
 0.00436	 0.00436
 0.00436	 0.00436
 0.00468	 0.00468
 0.18289	 0.18289
 0.68233	 0.68233
 0.67674	 0.67674
 0.67411	 0.67411
 0.67411	 0.67411
 0.67543	 0.67543
 0.11549	 0.11549
 0.00468	 0.00468
 0.00436	 0.00436
 0.00436	 0.00436
 0.00436	 0.00436
 0.00468	 0.00468
 0.00468	 0.00468
 0.00468	 0.00468
 0.00534	 0.00534
 0.00436	 0.00436
 0.09445	 0.09445
 0.66721	 0.66721
 0.66458	 0.66458
 0.66261	 0.66261
 0.66195	 0.66195
 0.66491	 0.66491
 0.36800	 0.36800
 0.00567	 0.00567
 0.00468	 0.00468
 0.00436	 0.00436
 0.00436	 0.00436
 0.00403	 0.00403
 0.00436	 0.00436
 0.00403	 0.00403
 0.00403	 0.00403
 0.00403	 0.00403
 0.08129	 0.08129
 0.66721	 0.66721
 0.66820	 0.66820
 0.66918	 0.66918
 0.67346	 0.67346
 0.67609	 0.67609
 0.44560	 0.44560
 0.00666	 0.00666
 0.00370	 0.00370
 0.00403	 0.00403
 0.00403	 0.00403
 0.00436	 0.00436
 0.00436	 0.00436
 0.00468	 0.00468
 0.00403	 0.00403
 0.00436	 0.00436
 0.06387	 0.06387
 0.68957	 0.68957
 0.68891	 0.68891
 0.68957	 0.68957
 0.68924	 0.68924
 0.68990	 0.68990
 0.52024	 0.52024
 0.00731	 0.00731
 0.00436	 0.00436
 0.00468	 0.00468
 0.00468	 0.00468
 0.00468	 0.00468
 0.00436	 0.00436
 0.00436	 0.00436
 0.00436	 0.00436
 0.00468	 0.00468
 0.04743	 0.04743
 0.70239	 0.70239
 0.70305	 0.70305
 0.70436	 0.70436
 0.70535	 0.70535
 0.70897	 0.70897
 0.61855	 0.61855
 0.01159	 0.01159
 0.00468	 0.00468
 0.00370	 0.00370
 0.00436	 0.00436
 0.00403	 0.00403
 0.00436	 0.00436
 0.00436	 0.00436
 0.00468	 0.00468
 0.00468	 0.00468
 0.03165	 0.03165
 0.72475	 0.72475
 0.72475	 0.72475
 0.72639	 0.72639
 0.72902	 0.72902
 0.72836	 0.72836
 0.65932	 0.65932
 0.01060	 0.01060
 0.00468	 0.00468
 0.00403	 0.00403
 0.00436	 0.00436
 0.00534	 0.00534
 0.00436	 0.00436
 0.00468	 0.00468
 0.00436	 0.00436
 0.00436	 0.00436
 0.00666	 0.00666
 0.71883	 0.71883
 0.72935	 0.72935
 0.73264	 0.73264
 0.73395	 0.73395
 0.73691	 0.73691
 0.70699	 0.70699
 0.01060	 0.01060
 0.00436	 0.00436
 0.00436	 0.00436
 0.00468	 0.00468
 0.00403	 0.00403
 0.00501	 0.00501
 0.00403	 0.00403
 0.00436	 0.00436
 0.00468	 0.00468
 0.00699	 0.00699
 0.72804	 0.72804
 0.73560	 0.73560
 0.73527	 0.73527
 0.73757	 0.73757
 0.73757	 0.73757
 0.72113	 0.72113
 0.01685	 0.01685
 0.00403	 0.00403
 0.00436	 0.00436
 0.00403	 0.00403
 0.00370	 0.00370
 0.00436	 0.00436
 0.00468	 0.00468
 0.00436	 0.00436
 0.00468	 0.00468
 0.00699	 0.00699
 0.72705	 0.72705
 0.73461	 0.73461
 0.73231	 0.73231
 0.73560	 0.73560
 0.73856	 0.73856
 0.70601	 0.70601
 0.01455	 0.01455
 0.00436	 0.00436
 0.00436	 0.00436
 0.00403	 0.00403
 0.00436	 0.00436
 0.00468	 0.00468
 0.00436	 0.00436
 0.00436	 0.00436
 0.00436	 0.00436
 0.00534	 0.00534
 0.72508	 0.72508
 0.73724	 0.73724
 0.73626	 0.73626
 0.74020	 0.74020
 0.74415	 0.74415
 0.71291	 0.71291
 0.00830	 0.00830
 0.00436	 0.00436
 0.00436	 0.00436
 0.00436	 0.00436
 0.00403	 0.00403
 0.00436	 0.00436
 0.00468	 0.00468
 0.00436	 0.00436
 0.00468	 0.00468
 0.00436	 0.00436
 0.71554	 0.71554
 0.74711	 0.74711
 0.74908	 0.74908
 0.75072	 0.75072
 0.75138	 0.75138
 0.75302	 0.75302
 0.02540	 0.02540
 0.00468	 0.00468
 0.00436	 0.00436
 0.00436	 0.00436
 0.00436	 0.00436
 0.00468	 0.00468
 0.00468	 0.00468
 0.00468	 0.00468
 0.00468	 0.00468
 0.00468	 0.00468
 0.72475	 0.72475
 0.76289	 0.76289
 0.76552	 0.76552
 0.77012	 0.77012
 0.77012	 0.77012
 0.77472	 0.77472
 0.04151	 0.04151
 0.00436	 0.00436
 0.00468	 0.00468
 0.00436	 0.00436
 0.00436	 0.00436
 0.00403	 0.00403
 0.00436	 0.00436
 0.00370	 0.00370
 0.00436	 0.00436
 0.00468	 0.00468
 0.74382	 0.74382
 0.78590	 0.78590
 0.78755	 0.78755
 0.79149	 0.79149
 0.79248	 0.79248
 0.79182	 0.79182
 0.05466	 0.05466
 0.00436	 0.00436
 0.00403	 0.00403
 0.00436	 0.00436
 0.00436	 0.00436
 0.00468	 0.00468
 0.00436	 0.00436
 0.00403	 0.00403
 0.00436	 0.00436
 0.00403	 0.00403
 0.73527	 0.73527
 0.79116	 0.79116
 0.79018	 0.79018
 0.79084	 0.79084
 0.79445	 0.79445
 0.79774	 0.79774
 0.11911	 0.11911
 0.00436	 0.00436
 0.00468	 0.00468
 0.00468	 0.00468
 0.00468	 0.00468
 0.00468	 0.00468
 0.00436	 0.00436
 0.00468	 0.00468
 0.00403	 0.00403
 0.00370	 0.00370
 0.70371	 0.70371
 0.79577	 0.79577
 0.79708	 0.79708
 0.79610	 0.79610
 0.79445	 0.79445
 0.79807	 0.79807
 0.12206	 0.12206
 0.00534	 0.00534
 0.00436	 0.00436
 0.00370	 0.00370
 0.00403	 0.00403
 0.00436	 0.00436
 0.00436	 0.00436
 0.00436	 0.00436
 0.00468	 0.00468
 0.00468	 0.00468
 0.42521	 0.42521
 0.78919	 0.78919
 0.78919	 0.78919
 0.78985	 0.78985
 0.78821	 0.78821
 0.78788	 0.78788
 0.11154	 0.11154
 0.00468	 0.00468
 0.00501	 0.00501
 0.00436	 0.00436
 0.00403	 0.00403
 0.00436	 0.00436
 0.00501	 0.00501
 0.00436	 0.00436
 0.00403	 0.00403
 0.00436	 0.00436
 0.42028	 0.42028
 0.76190	 0.76190
 0.75894	 0.75894
 0.75598	 0.75598
 0.75664	 0.75664
 0.75763	 0.75763
 0.18848	 0.18848
 0.00534	 0.00534
 0.00468	 0.00468
 0.00436	 0.00436
 0.00403	 0.00403
 0.00436	 0.00436
 0.00403	 0.00403
 0.00403	 0.00403
 0.00403	 0.00403
 0.00501	 0.00501
 0.41469	 0.41469
 0.72080	 0.72080
 0.71686	 0.71686
 0.71719	 0.71719
 0.71653	 0.71653
 0.71686	 0.71686
 0.18059	 0.18059
 0.00468	 0.00468
 0.00436	 0.00436
 0.00468	 0.00468
 0.00403	 0.00403
 0.00468	 0.00468
 0.00436	 0.00436
 0.00468	 0.00468
 0.00436	 0.00436
 0.00436	 0.00436
 0.26838	 0.26838
 0.69022	 0.69022
 0.68792	 0.68792
 0.68562	 0.68562
 0.68858	 0.68858
 0.69022	 0.69022
 0.06913	 0.06913
 0.00501	 0.00501
 0.00468	 0.00468
 0.00403	 0.00403
 0.00436	 0.00436
 0.00436	 0.00436
 0.00468	 0.00468
 0.00403	 0.00403
 0.00403	 0.00403
 0.00403	 0.00403
 0.15659	 0.15659
 0.69253	 0.69253
 0.69614	 0.69614
 0.69746	 0.69746
 0.70173	 0.70173
 0.70436	 0.70436
 0.28548	 0.28548
 0.00501	 0.00501
 0.00370	 0.00370
 0.00436	 0.00436
 0.00403	 0.00403
 0.00403	 0.00403
 0.00403	 0.00403
 0.00468	 0.00468
 0.00436	 0.00436
 0.00468	 0.00468
 0.16152	 0.16152
 0.73231	 0.73231
 0.73428	 0.73428
 0.74020	 0.74020
 0.74086	 0.74086
 0.74513	 0.74513
 0.38379	 0.38379
 0.00633	 0.00633
 0.00436	 0.00436
 0.00436	 0.00436
 0.00468	 0.00468
 0.00403	 0.00403
 0.00468	 0.00468
 0.00436	 0.00436
 0.00436	 0.00436
 0.00403	 0.00403
 0.13489	 0.13489
 0.76256	 0.76256
 0.76486	 0.76486
 0.76651	 0.76651
 0.77177	 0.77177
 0.77604	 0.77604
 0.46960	 0.46960
 0.00633	 0.00633
 0.00436	 0.00436
 0.00468	 0.00468
 0.00436	 0.00436
 0.00403	 0.00403
 0.00436	 0.00436
 0.00468	 0.00468
 0.00436	 0.00436
 0.00436	 0.00436
 0.12667	 0.12667
 0.79577	 0.79577
 0.79807	 0.79807
 0.80169	 0.80169
 0.80563	 0.80563
 0.80958	 0.80958
 0.58468	 0.58468
 0.00830	 0.00830
 0.00403	 0.00403
 0.00436	 0.00436
 0.00468	 0.00468
 0.00468	 0.00468
 0.00468	 0.00468
 0.00468	 0.00468
 0.00436	 0.00436
 0.00436	 0.00436
 0.09510	 0.09510
 0.81747	 0.81747
 0.81944	 0.81944
 0.82273	 0.82273
 0.82569	 0.82569
 0.82799	 0.82799
 0.64748	 0.64748
 0.00731	 0.00731
 0.00468	 0.00468
 0.00436	 0.00436
 0.00436	 0.00436
 0.00403	 0.00403
 0.00436	 0.00436
 0.00403	 0.00403
 0.00403	 0.00403
 0.00403	 0.00403
 0.01948	 0.01948
 0.81648	 0.81648
 0.82207	 0.82207
 0.82503	 0.82503
 0.82930	 0.82930
 0.83062	 0.83062
 0.68529	 0.68529
 0.00731	 0.00731
 0.00436	 0.00436
 0.00403	 0.00403
 0.00436	 0.00436
 0.00403	 0.00403
 0.00436	 0.00436
 0.00436	 0.00436
 0.00468	 0.00468
 0.00501	 0.00501
 0.02375	 0.02375
 0.82207	 0.82207
 0.82372	 0.82372
 0.82503	 0.82503
 0.82339	 0.82339
 0.82404	 0.82404
 0.70929	 0.70929
 0.01093	 0.01093
 0.00468	 0.00468
 0.00468	 0.00468
 0.00468	 0.00468
 0.00436	 0.00436
 0.00436	 0.00436
 0.00403	 0.00403
 0.00468	 0.00468
 0.00436	 0.00436
 0.02244	 0.02244
 0.79380	 0.79380
 0.80070	 0.80070
 0.80234	 0.80234
 0.80366	 0.80366
 0.80366	 0.80366
 0.67050	 0.67050
 0.01027	 0.01027
 0.00468	 0.00468
 0.00468	 0.00468
 0.00436	 0.00436
 0.00436	 0.00436
 0.00436	 0.00436
 0.00436	 0.00436
 0.00403	 0.00403
 0.00468	 0.00468
 0.01323	 0.01323
 0.77703	 0.77703
 0.78426	 0.78426
 0.78492	 0.78492
 0.78689	 0.78689
 0.78656	 0.78656
 0.66589	 0.66589
 0.00666	 0.00666
 0.00436	 0.00436
 0.00468	 0.00468
 0.00468	 0.00468
 0.00436	 0.00436
 0.00403	 0.00403
 0.00468	 0.00468
 0.00468	 0.00468
 0.00436	 0.00436
 0.00534	 0.00534
 0.74974	 0.74974
 0.75697	 0.75697
 0.75763	 0.75763
 0.75861	 0.75861
 0.76026	 0.76026
 0.75105	 0.75105
 0.01586	 0.01586
 0.00436	 0.00436
 0.00468	 0.00468
 0.00370	 0.00370
 0.00436	 0.00436
 0.00403	 0.00403
 0.00436	 0.00436
 0.00403	 0.00403
 0.00436	 0.00436
 0.00534	 0.00534
 0.72869	 0.72869
 0.74283	 0.74283
 0.74448	 0.74448
 0.74579	 0.74579
 0.74612	 0.74612
 0.74448	 0.74448
 0.02277	 0.02277
 0.00403	 0.00403
 0.00436	 0.00436
 0.00403	 0.00403
 0.00468	 0.00468
 0.00403	 0.00403
 0.00436	 0.00436
 0.00403	 0.00403
 0.00436	 0.00436
 0.00501	 0.00501
 0.71850	 0.71850
 0.73560	 0.73560
 0.73626	 0.73626
 0.73593	 0.73593
 0.73658	 0.73658
 0.74119	 0.74119
 0.03099	 0.03099
 0.00436	 0.00436
 0.00468	 0.00468
 0.00436	 0.00436
 0.00436	 0.00436
 0.00468	 0.00468
 0.00436	 0.00436
 0.00468	 0.00468
 0.00403	 0.00403
 0.00436	 0.00436
 0.71061	 0.71061
 0.73823	 0.73823
 0.74316	 0.74316
 0.74448	 0.74448
 0.74513	 0.74513
 0.74612	 0.74612
 0.06814	 0.06814
 0.00468	 0.00468
 0.00468	 0.00468
 0.00436	 0.00436
 0.00403	 0.00403
 0.00436	 0.00436
 0.00468	 0.00468
 0.00436	 0.00436
 0.00436	 0.00436
 0.00468	 0.00468
 0.68694	 0.68694
 0.73395	 0.73395
 0.73593	 0.73593
 0.73461	 0.73461
 0.73560	 0.73560
 0.73330	 0.73330
 0.06683	 0.06683
 0.00468	 0.00468
 0.00436	 0.00436
 0.00468	 0.00468
 0.00468	 0.00468
 0.00468	 0.00468
 0.00468	 0.00468
 0.00468	 0.00468
 0.00403	 0.00403
 0.00468	 0.00468
 0.55575	 0.55575
 0.72113	 0.72113
 0.72212	 0.72212
 0.72343	 0.72343
 0.72376	 0.72376
 0.72376	 0.72376
 0.07011	 0.07011
 0.00468	 0.00468
 0.00436	 0.00436
 0.00468	 0.00468
 0.00436	 0.00436
 0.00403	 0.00403
 0.00403	 0.00403
 0.00403	 0.00403
 0.00436	 0.00436
 0.00468	 0.00468
 0.55542	 0.55542
 0.70535	 0.70535
 0.70568	 0.70568
 0.70502	 0.70502
 0.70338	 0.70338
 0.70338	 0.70338
 0.11450	 0.11450
 0.00468	 0.00468
 0.00436	 0.00436
 0.00436	 0.00436
 0.00468	 0.00468
 0.00436	 0.00436
 0.00403	 0.00403
 0.00468	 0.00468
 0.00468	 0.00468
 0.00403	 0.00403
 0.53701	 0.53701
 0.67740	 0.67740
 0.67313	 0.67313
 0.67378	 0.67378
 0.67346	 0.67346
 0.67609	 0.67609
 0.11319	 0.11319
 0.00468	 0.00468
 0.00436	 0.00436
 0.00436	 0.00436
 0.00534	 0.00534
 0.00436	 0.00436
 0.00370	 0.00370
 0.00436	 0.00436
 0.00403	 0.00403
 0.00436	 0.00436
 0.40253	 0.40253
 0.65932	 0.65932
 0.66096	 0.66096
 0.65899	 0.65899
 0.66030	 0.66030
 0.65899	 0.65899
 0.04776	 0.04776
 0.00436	 0.00436
 0.00468	 0.00468
 0.00403	 0.00403
 0.00403	 0.00403
 0.00436	 0.00436
 0.00501	 0.00501
 0.00436	 0.00436
 0.00370	 0.00370
 0.00534	 0.00534
 0.24306	 0.24306
 0.64518	 0.64518
 0.64452	 0.64452
 0.64354	 0.64354
 0.64386	 0.64386
 0.64452	 0.64452
 0.19703	 0.19703
 0.00501	 0.00501
 0.00403	 0.00403
 0.00468	 0.00468
 0.00468	 0.00468
 0.00436	 0.00436
 0.00468	 0.00468
 0.00436	 0.00436
 0.00468	 0.00468
 0.00403	 0.00403
 0.21840	 0.21840
 0.63170	 0.63170
 0.63433	 0.63433
 0.63400	 0.63400
 0.63532	 0.63532
 0.63663	 0.63663
 0.26608	 0.26608
 0.00534	 0.00534
 0.00468	 0.00468
 0.00436	 0.00436
 0.00436	 0.00436
 0.00436	 0.00436
 0.00370	 0.00370
 0.00436	 0.00436
 0.00436	 0.00436
 0.00468	 0.00468
 0.17369	 0.17369
 0.63926	 0.63926
 0.64189	 0.64189
 0.64452	 0.64452
 0.64814	 0.64814
 0.64912	 0.64912
 0.33710	 0.33710
 0.00534	 0.00534
 0.00403	 0.00403
 0.00436	 0.00436
 0.00370	 0.00370
 0.00370	 0.00370
 0.00403	 0.00403
 0.00436	 0.00436
 0.00468	 0.00468
 0.00403	 0.00403
 0.15396	 0.15396
 0.66951	 0.66951
 0.67083	 0.67083
 0.67411	 0.67411
 0.67674	 0.67674
 0.68200	 0.68200
 0.45448	 0.45448
 0.00699	 0.00699
 0.00468	 0.00468
 0.00468	 0.00468
 0.00436	 0.00436
 0.00468	 0.00468
 0.00468	 0.00468
 0.00403	 0.00403
 0.00403	 0.00403
 0.00403	 0.00403
 0.11582	 0.11582
 0.70371	 0.70371
 0.70338	 0.70338
 0.70535	 0.70535
 0.70699	 0.70699
 0.70798	 0.70798
 0.53470	 0.53470
 0.00699	 0.00699
 0.00436	 0.00436
 0.00436	 0.00436
 0.00436	 0.00436
 0.00436	 0.00436
 0.00436	 0.00436
 0.00436	 0.00436
 0.00468	 0.00468
 0.00436	 0.00436
 0.02573	 0.02573
 0.71225	 0.71225
 0.71554	 0.71554
 0.71686	 0.71686
 0.71620	 0.71620
 0.71719	 0.71719
 0.53076	 0.53076
 0.00633	 0.00633
 0.00436	 0.00436
 0.00468	 0.00468
 0.00436	 0.00436
 0.00436	 0.00436
 0.00468	 0.00468
 0.00468	 0.00468
 0.00436	 0.00436
 0.00370	 0.00370
 0.02671	 0.02671
 0.71554	 0.71554
 0.71817	 0.71817
 0.71949	 0.71949
 0.72212	 0.72212
 0.72278	 0.72278
 0.58600	 0.58600
 0.00962	 0.00962
 0.00468	 0.00468
 0.00436	 0.00436
 0.00403	 0.00403
 0.00436	 0.00436
 0.00403	 0.00403
 0.00370	 0.00370
 0.00403	 0.00403
 0.00403	 0.00403
 0.03165	 0.03165
 0.72804	 0.72804
 0.73165	 0.73165
 0.73034	 0.73034
 0.73165	 0.73165
 0.73297	 0.73297
 0.57482	 0.57482
 0.00797	 0.00797
 0.00403	 0.00403
 0.00468	 0.00468
 0.00436	 0.00436
 0.00436	 0.00436
 0.00403	 0.00403
 0.00403	 0.00403
 0.00468	 0.00468
 0.00403	 0.00403
 0.01718	 0.01718
 0.72442	 0.72442
 0.73001	 0.73001
 0.73165	 0.73165
 0.73330	 0.73330
 0.73461	 0.73461
 0.53306	 0.53306
 0.00600	 0.00600
 0.00468	 0.00468
 0.00436	 0.00436
 0.00468	 0.00468
 0.00436	 0.00436
 0.00403	 0.00403
 0.00403	 0.00403
 0.00436	 0.00436
 0.00436	 0.00436
 0.00666	 0.00666
 0.73658	 0.73658
 0.74908	 0.74908
 0.74776	 0.74776
 0.75007	 0.75007
 0.75368	 0.75368
 0.72080	 0.72080
 0.01225	 0.01225
 0.00403	 0.00403
 0.00468	 0.00468
 0.00436	 0.00436
 0.00403	 0.00403
 0.00436	 0.00436
 0.00436	 0.00436
 0.00534	 0.00534
 0.00468	 0.00468
 0.00666	 0.00666
 0.74974	 0.74974
 0.76453	 0.76453
 0.76946	 0.76946
 0.77242	 0.77242
 0.77604	 0.77604
 0.76585	 0.76585
 0.01784	 0.01784
 0.00436	 0.00436
 0.00468	 0.00468
 0.00468	 0.00468
 0.00436	 0.00436
 0.00468	 0.00468
 0.00468	 0.00468
 0.00468	 0.00468
 0.00403	 0.00403
 0.00534	 0.00534
 0.77900	 0.77900
 0.79182	 0.79182
 0.79544	 0.79544
 0.79544	 0.79544
 0.79643	 0.79643
 0.79906	 0.79906
 0.02244	 0.02244
 0.00468	 0.00468
 0.00468	 0.00468
 0.00436	 0.00436
 0.00403	 0.00403
 0.00370	 0.00370
 0.00403	 0.00403
 0.00436	 0.00436
 0.00403	 0.00403
 0.00534	 0.00534
 0.78689	 0.78689
 0.80793	 0.80793
 0.80892	 0.80892
 0.80859	 0.80859
 0.80497	 0.80497
 0.81023	 0.81023
 0.05072	 0.05072
 0.00436	 0.00436
 0.00468	 0.00468
 0.00468	 0.00468
 0.00436	 0.00436
 0.00403	 0.00403
 0.00436	 0.00436
 0.00403	 0.00403
 0.00468	 0.00468
 0.00436	 0.00436
 0.77538	 0.77538
 0.80530	 0.80530
 0.80695	 0.80695
 0.80563	 0.80563
 0.80563	 0.80563
 0.80497	 0.80497
 0.04546	 0.04546
 0.00501	 0.00501
 0.00468	 0.00468
 0.00370	 0.00370
 0.00468	 0.00468
 0.00436	 0.00436
 0.00403	 0.00403
 0.00436	 0.00436
 0.00436	 0.00436
 0.00468	 0.00468
 0.68496	 0.68496
 0.79577	 0.79577
 0.79577	 0.79577
 0.79807	 0.79807
 0.79873	 0.79873
 0.79840	 0.79840
 0.04644	 0.04644
 0.00468	 0.00468
 0.00403	 0.00403
 0.00403	 0.00403
 0.00468	 0.00468
 0.00534	 0.00534
 0.00403	 0.00403
 0.00436	 0.00436
 0.00468	 0.00468
 0.00468	 0.00468
 0.67083	 0.67083
 0.76881	 0.76881
 0.76585	 0.76585
 0.76453	 0.76453
 0.76157	 0.76157
 0.75861	 0.75861
 0.09445	 0.09445
 0.00436	 0.00436
 0.00436	 0.00436
 0.00436	 0.00436
 0.00468	 0.00468
 0.00468	 0.00468
 0.00403	 0.00403
 0.00468	 0.00468
 0.00403	 0.00403
 0.00436	 0.00436
 0.61657	 0.61657
 0.71916	 0.71916
 0.71817	 0.71817
 0.71916	 0.71916
 0.71554	 0.71554
 0.71488	 0.71488
 0.07899	 0.07899
 0.00468	 0.00468
 0.00436	 0.00436
 0.00436	 0.00436
 0.00403	 0.00403
 0.00436	 0.00436
 0.00468	 0.00468
 0.00436	 0.00436
 0.00436	 0.00436
 0.00468	 0.00468
 0.52155	 0.52155
 0.67642	 0.67642
 0.67411	 0.67411
 0.67576	 0.67576
 0.67313	 0.67313
 0.67148	 0.67148
 0.03197	 0.03197
 0.00436	 0.00436
 0.00436	 0.00436
 0.00403	 0.00403
 0.00501	 0.00501
 0.00403	 0.00403
 0.00436	 0.00436
 0.00436	 0.00436
 0.00468	 0.00468
 0.00403	 0.00403
 0.36176	 0.36176
 0.67477	 0.67477
 0.67674	 0.67674
 0.68168	 0.68168
 0.68200	 0.68200
 0.68661	 0.68661
 0.14377	 0.14377
 0.00468	 0.00468
 0.00436	 0.00436
 0.00403	 0.00403
 0.00403	 0.00403
 0.00436	 0.00436
 0.00436	 0.00436
 0.00403	 0.00403
 0.00403	 0.00403
 0.00468	 0.00468
 0.37458	 0.37458
 0.71488	 0.71488
 0.72113	 0.72113
 0.72343	 0.72343
 0.72606	 0.72606
 0.72672	 0.72672
 0.21314	 0.21314
 0.00468	 0.00468
 0.00436	 0.00436
 0.00370	 0.00370
 0.00403	 0.00403
 0.00436	 0.00436
 0.00468	 0.00468
 0.00436	 0.00436
 0.00436	 0.00436
 0.00468	 0.00468
 0.33644	 0.33644
 0.74546	 0.74546
 0.74546	 0.74546
 0.74711	 0.74711
 0.74776	 0.74776
 0.74974	 0.74974
 0.28942	 0.28942
 0.00468	 0.00468
 0.00436	 0.00436
 0.00436	 0.00436
 0.00468	 0.00468
 0.00534	 0.00534
 0.00436	 0.00436
 0.00468	 0.00468
 0.00468	 0.00468
 0.00370	 0.00370
 0.32493	 0.32493
 0.76815	 0.76815
 0.76946	 0.76946
 0.77275	 0.77275
 0.77407	 0.77407
 0.77703	 0.77703
 0.39497	 0.39497
 0.00567	 0.00567
 0.00436	 0.00436
 0.00436	 0.00436
 0.00436	 0.00436
 0.00436	 0.00436
 0.00403	 0.00403
 0.00403	 0.00403
 0.00436	 0.00436
 0.00403	 0.00403
 0.26575	 0.26575
 0.80004	 0.80004
 0.80169	 0.80169
 0.80169	 0.80169
 0.80333	 0.80333
 0.80333	 0.80333
 0.47486	 0.47486
 0.00567	 0.00567
 0.00468	 0.00468
 0.00436	 0.00436
 0.00436	 0.00436
 0.00403	 0.00403
 0.00403	 0.00403
 0.00436	 0.00436
 0.00403	 0.00403
 0.00468	 0.00468
 0.07735	 0.07735
 0.80267	 0.80267
 0.80234	 0.80234
 0.80333	 0.80333
 0.80563	 0.80563
 0.80596	 0.80596
 0.45415	 0.45415
 0.00567	 0.00567
 0.00436	 0.00436
 0.00403	 0.00403
 0.00436	 0.00436
 0.00403	 0.00403
 0.00436	 0.00436
 0.00436	 0.00436
 0.00403	 0.00403
 0.00403	 0.00403
 0.08458	 0.08458
 0.80958	 0.80958
 0.81089	 0.81089
 0.81122	 0.81122
 0.81023	 0.81023
 0.81287	 0.81287
 0.52221	 0.52221
 0.00699	 0.00699
 0.00436	 0.00436
 0.00370	 0.00370
 0.00436	 0.00436
 0.00403	 0.00403
 0.00468	 0.00468
 0.00468	 0.00468
 0.00436	 0.00436
 0.00468	 0.00468
 0.09543	 0.09543
 0.79741	 0.79741
 0.79577	 0.79577
 0.79577	 0.79577
 0.79577	 0.79577
 0.79708	 0.79708
 0.50117	 0.50117
 0.00699	 0.00699
 0.00468	 0.00468
 0.00403	 0.00403
 0.00468	 0.00468
 0.00468	 0.00468
 0.00436	 0.00436
 0.00436	 0.00436
 0.00436	 0.00436
 0.00403	 0.00403
 0.05302	 0.05302
 0.78327	 0.78327
 0.78229	 0.78229
 0.78262	 0.78262
 0.78229	 0.78229
 0.78064	 0.78064
 0.44363	 0.44363
 0.00600	 0.00600
 0.00436	 0.00436
 0.00436	 0.00436
 0.00436	 0.00436
 0.00436	 0.00436
 0.00468	 0.00468
 0.00468	 0.00468
 0.00436	 0.00436
 0.00468	 0.00468
 0.01488	 0.01488
 0.76026	 0.76026
 0.76453	 0.76453
 0.76651	 0.76651
 0.76289	 0.76289
 0.76124	 0.76124
 0.65406	 0.65406
 0.00929	 0.00929
 0.00468	 0.00468
 0.00436	 0.00436
 0.00403	 0.00403
 0.00436	 0.00436
 0.00468	 0.00468
 0.00468	 0.00468
 0.00436	 0.00436
 0.00403	 0.00403
 0.01356	 0.01356
 0.74908	 0.74908
 0.75270	 0.75270
 0.75401	 0.75401
 0.75565	 0.75565
 0.75598	 0.75598
 0.69812	 0.69812
 0.01258	 0.01258
 0.00468	 0.00468
 0.00468	 0.00468
 0.00468	 0.00468
 0.00436	 0.00436
 0.00436	 0.00436
 0.00436	 0.00436
 0.00403	 0.00403
 0.00370	 0.00370
 0.00896	 0.00896
 0.75105	 0.75105
 0.75927	 0.75927
 0.76059	 0.76059
 0.76092	 0.76092
 0.76190	 0.76190
 0.74513	 0.74513
 0.01488	 0.01488
 0.00403	 0.00403
 0.00468	 0.00468
 0.00436	 0.00436
 0.00436	 0.00436
 0.00436	 0.00436
 0.00468	 0.00468
 0.00436	 0.00436
 0.00468	 0.00468
 0.00731	 0.00731
 0.75796	 0.75796
 0.76881	 0.76881
 0.76782	 0.76782
 0.76848	 0.76848
 0.77012	 0.77012
 0.77275	 0.77275
 0.03033	 0.03033
 0.00468	 0.00468
 0.00403	 0.00403
 0.00468	 0.00468
 0.00501	 0.00501
 0.00468	 0.00468
 0.00403	 0.00403
 0.00468	 0.00468
 0.00403	 0.00403
 0.00567	 0.00567
 0.75763	 0.75763
 0.77209	 0.77209
 0.77144	 0.77144
 0.77078	 0.77078
 0.77177	 0.77177
 0.74743	 0.74743
 0.02803	 0.02803
 0.00468	 0.00468
 0.00436	 0.00436
 0.00370	 0.00370
 0.00403	 0.00403
 0.00436	 0.00436
 0.00436	 0.00436
 0.00436	 0.00436
 0.00501	 0.00501
 0.00468	 0.00468
 0.71094	 0.71094
 0.76519	 0.76519
 0.76387	 0.76387
 0.76157	 0.76157
 0.76124	 0.76124
 0.77703	 0.77703
 0.03000	 0.03000
 0.00436	 0.00436
 0.00468	 0.00468
 0.00468	 0.00468
 0.00436	 0.00436
 0.00403	 0.00403
 0.00403	 0.00403
 0.00436	 0.00436
 0.00370	 0.00370
 0.00468	 0.00468
 0.69812	 0.69812
 0.74448	 0.74448
 0.74316	 0.74316
 0.74546	 0.74546
 0.74678	 0.74678
 0.74579	 0.74579
 0.05696	 0.05696
 0.00436	 0.00436
 0.00436	 0.00436
 0.00403	 0.00403
 0.00436	 0.00436
 0.00403	 0.00403
 0.00403	 0.00403
 0.00403	 0.00403
 0.00436	 0.00436
 0.00468	 0.00468
 0.66984	 0.66984
 0.72508	 0.72508
 0.72475	 0.72475
 0.72245	 0.72245
 0.71850	 0.71850
 0.72212	 0.72212
 0.04776	 0.04776
 0.00436	 0.00436
 0.00436	 0.00436
 0.00436	 0.00436
 0.00436	 0.00436
 0.00403	 0.00403
 0.00436	 0.00436
 0.00436	 0.00436
 0.00403	 0.00403
 0.00436	 0.00436
 0.63499	 0.63499
 0.70239	 0.70239
 0.70239	 0.70239
 0.70239	 0.70239
 0.70239	 0.70239
 0.70173	 0.70173
 0.02540	 0.02540
 0.00403	 0.00403
 0.00436	 0.00436
 0.00468	 0.00468
 0.00468	 0.00468
 0.00403	 0.00403
 0.00403	 0.00403
 0.00436	 0.00436
 0.00436	 0.00436
 0.00403	 0.00403
 0.49163	 0.49163
 0.68792	 0.68792
 0.68792	 0.68792
 0.69088	 0.69088
 0.69121	 0.69121
 0.69055	 0.69055
 0.10694	 0.10694
 0.00468	 0.00468
 0.00436	 0.00436
 0.00468	 0.00468
 0.00403	 0.00403
 0.00436	 0.00436
 0.00436	 0.00436
 0.00403	 0.00403
 0.00468	 0.00468
 0.00501	 0.00501
 0.46960	 0.46960
 0.68858	 0.68858
 0.68891	 0.68891
 0.68924	 0.68924
 0.68727	 0.68727
 0.68858	 0.68858
 0.15790	 0.15790
 0.00534	 0.00534
 0.00436	 0.00436
 0.00468	 0.00468
 0.00468	 0.00468
 0.00436	 0.00436
 0.00436	 0.00436
 0.00468	 0.00468
 0.00403	 0.00403
 0.00403	 0.00403
 0.38938	 0.38938
 0.68595	 0.68595
 0.68759	 0.68759
 0.68727	 0.68727
 0.68924	 0.68924
 0.69121	 0.69121
 0.22629	 0.22629
 0.00468	 0.00468
 0.00468	 0.00468
 0.00403	 0.00403
 0.00436	 0.00436
 0.00403	 0.00403
 0.00403	 0.00403
 0.00403	 0.00403
 0.00436	 0.00436
 0.00468	 0.00468
 0.34499	 0.34499
 0.70173	 0.70173
 0.70371	 0.70371
 0.70305	 0.70305
 0.70239	 0.70239
 0.70305	 0.70305
 0.33414	 0.33414
 0.00534	 0.00534
 0.00403	 0.00403
 0.00403	 0.00403
 0.00436	 0.00436
 0.00436	 0.00436
 0.00436	 0.00436
 0.00468	 0.00468
 0.00403	 0.00403
 0.00436	 0.00436
 0.25950	 0.25950
 0.70962	 0.70962
 0.71061	 0.71061
 0.71094	 0.71094
 0.71357	 0.71357
 0.71324	 0.71324
 0.39858	 0.39858
 0.00567	 0.00567
 0.00436	 0.00436
 0.00403	 0.00403
 0.00436	 0.00436
 0.00436	 0.00436
 0.00403	 0.00403
 0.00436	 0.00436
 0.00436	 0.00436
 0.00436	 0.00436
 0.07603	 0.07603
 0.71883	 0.71883
 0.72014	 0.72014
 0.72047	 0.72047
 0.72212	 0.72212
 0.72245	 0.72245
 0.38313	 0.38313
 0.00534	 0.00534
 0.00436	 0.00436
 0.00436	 0.00436
 0.00501	 0.00501
 0.00436	 0.00436
 0.00468	 0.00468
 0.00436	 0.00436
 0.00436	 0.00436
 0.00436	 0.00436
 0.07439	 0.07439
 0.71686	 0.71686
 0.71686	 0.71686
 0.71390	 0.71390
 0.71488	 0.71488
 0.71291	 0.71291
 0.45053	 0.45053
 0.00699	 0.00699
 0.00403	 0.00403
 0.00534	 0.00534
 0.00468	 0.00468
 0.00436	 0.00436
 0.00403	 0.00403
 0.00436	 0.00436
 0.00501	 0.00501
 0.00403	 0.00403
 0.08425	 0.08425
 0.71291	 0.71291
 0.71521	 0.71521
 0.71620	 0.71620
 0.71686	 0.71686
 0.71817	 0.71817
 0.45941	 0.45941
 0.00633	 0.00633
 0.00468	 0.00468
 0.00436	 0.00436
 0.00436	 0.00436
 0.00370	 0.00370
 0.00468	 0.00468
 0.00436	 0.00436
 0.00468	 0.00468
 0.00403	 0.00403
 0.04282	 0.04282
 0.72343	 0.72343
 0.72376	 0.72376
 0.72442	 0.72442
 0.72573	 0.72573
 0.72672	 0.72672
 0.34729	 0.34729
 0.00534	 0.00534
 0.00403	 0.00403
 0.00436	 0.00436
 0.00436	 0.00436
 0.00436	 0.00436
 0.00436	 0.00436
 0.00436	 0.00436
 0.00468	 0.00468
 0.00468	 0.00468
 0.01356	 0.01356
 0.74119	 0.74119
 0.74678	 0.74678
 0.75007	 0.75007
 0.75598	 0.75598
 0.75533	 0.75533
 0.63400	 0.63400
 0.00896	 0.00896
 0.00468	 0.00468
 0.00436	 0.00436
 0.00468	 0.00468
 0.00436	 0.00436
 0.00403	 0.00403
 0.00468	 0.00468
 0.00468	 0.00468
 0.00403	 0.00403
 0.01521	 0.01521
 0.78130	 0.78130
 0.78426	 0.78426
 0.78722	 0.78722
 0.78919	 0.78919
 0.78755	 0.78755
 0.70897	 0.70897
 0.01060	 0.01060
 0.00403	 0.00403
 0.00468	 0.00468
 0.00468	 0.00468
 0.00468	 0.00468
 0.00468	 0.00468
 0.00501	 0.00501
 0.00436	 0.00436
 0.00468	 0.00468
 0.01093	 0.01093
 0.78755	 0.78755
 0.79281	 0.79281
 0.79380	 0.79380
 0.79347	 0.79347
 0.79380	 0.79380
 0.75763	 0.75763
 0.01323	 0.01323
 0.00468	 0.00468
 0.00468	 0.00468
 0.00468	 0.00468
 0.00436	 0.00436
 0.00468	 0.00468
 0.00403	 0.00403
 0.00403	 0.00403
 0.00468	 0.00468
 0.00797	 0.00797
 0.79347	 0.79347
 0.80793	 0.80793
 0.80563	 0.80563
 0.80859	 0.80859
 0.80662	 0.80662
 0.80366	 0.80366
 0.02770	 0.02770
 0.00403	 0.00403
 0.00436	 0.00436
 0.00403	 0.00403
 0.00403	 0.00403
 0.00436	 0.00436
 0.00403	 0.00403
 0.00468	 0.00468
 0.00468	 0.00468
 0.00567	 0.00567
 0.79182	 0.79182
 0.80333	 0.80333
 0.80070	 0.80070
 0.79971	 0.79971
 0.79971	 0.79971
 0.78919	 0.78919
 0.02408	 0.02408
 0.00436	 0.00436
 0.00436	 0.00436
 0.00436	 0.00436
 0.00436	 0.00436
 0.00468	 0.00468
 0.00468	 0.00468
 0.00468	 0.00468
 0.00436	 0.00436
 0.00403	 0.00403
 0.73264	 0.73264
 0.78558	 0.78558
 0.78525	 0.78525
 0.78426	 0.78426
 0.78525	 0.78525
 0.80234	 0.80234
 0.02737	 0.02737
 0.00501	 0.00501
 0.00436	 0.00436
 0.00436	 0.00436
 0.00436	 0.00436
 0.00403	 0.00403
 0.00403	 0.00403
 0.00436	 0.00436
 0.00436	 0.00436
 0.00501	 0.00501
 0.71488	 0.71488
 0.75796	 0.75796
 0.75368	 0.75368
 0.75138	 0.75138
 0.74743	 0.74743
 0.74546	 0.74546
 0.05137	 0.05137
 0.00436	 0.00436
 0.00436	 0.00436
 0.00403	 0.00403
 0.00403	 0.00403
 0.00501	 0.00501
 0.00403	 0.00403
 0.00436	 0.00436
 0.00468	 0.00468
 0.00468	 0.00468
 0.65143	 0.65143
 0.69713	 0.69713
 0.69516	 0.69516
 0.69384	 0.69384
 0.69318	 0.69318
 0.69549	 0.69549
 0.04250	 0.04250
 0.00468	 0.00468
 0.00501	 0.00501
 0.00403	 0.00403
 0.00436	 0.00436
 0.00468	 0.00468
 0.00436	 0.00436
 0.00436	 0.00436
 0.00468	 0.00468
 0.00436	 0.00436
 0.61855	 0.61855
 0.66425	 0.66425
 0.66392	 0.66392
 0.66195	 0.66195
 0.66063	 0.66063
 0.65669	 0.65669
 0.02178	 0.02178
 0.00436	 0.00436
 0.00468	 0.00468
 0.00403	 0.00403
 0.00436	 0.00436
 0.00403	 0.00403
 0.00436	 0.00436
 0.00436	 0.00436
 0.00436	 0.00436
 0.00468	 0.00468
 0.49097	 0.49097
 0.63532	 0.63532
 0.63269	 0.63269
 0.63236	 0.63236
 0.62973	 0.62973
 0.62808	 0.62808
 0.08392	 0.08392
 0.00468	 0.00468
 0.00370	 0.00370
 0.00436	 0.00436
 0.00436	 0.00436
 0.00468	 0.00468
 0.00436	 0.00436
 0.00436	 0.00436
 0.00403	 0.00403
 0.00436	 0.00436
 0.47815	 0.47815
 0.63400	 0.63400
 0.63564	 0.63564
 0.63795	 0.63795
 0.63959	 0.63959
 0.64123	 0.64123
 0.12502	 0.12502
 0.00501	 0.00501
 0.00468	 0.00468
 0.00403	 0.00403
 0.00436	 0.00436
 0.00436	 0.00436
 0.00403	 0.00403
 0.00436	 0.00436
 0.00403	 0.00403
 0.00436	 0.00436
 0.44626	 0.44626
 0.65767	 0.65767
 0.65965	 0.65965
 0.66129	 0.66129
 0.66293	 0.66293
 0.66359	 0.66359
 0.18355	 0.18355
 0.00468	 0.00468
 0.00468	 0.00468
 0.00501	 0.00501
 0.00436	 0.00436
 0.00436	 0.00436
 0.00436	 0.00436
 0.00468	 0.00468
 0.00468	 0.00468
 0.00501	 0.00501
 0.42883	 0.42883
 0.67970	 0.67970
 0.68036	 0.68036
 0.68003	 0.68003
 0.67970	 0.67970
 0.68069	 0.68069
 0.27759	 0.27759
 0.00600	 0.00600
 0.00403	 0.00403
 0.00436	 0.00436
 0.00436	 0.00436
 0.00436	 0.00436
 0.00436	 0.00436
 0.00436	 0.00436
 0.00403	 0.00403
 0.00468	 0.00468
 0.35321	 0.35321
 0.68168	 0.68168
 0.68135	 0.68135
 0.68168	 0.68168
 0.68135	 0.68135
 0.68233	 0.68233
 0.32033	 0.32033
 0.00501	 0.00501
 0.00436	 0.00436
 0.00403	 0.00403
 0.00403	 0.00403
 0.00468	 0.00468
 0.00468	 0.00468
 0.00436	 0.00436
 0.00436	 0.00436
 0.00436	 0.00436
 0.12634	 0.12634
 0.68694	 0.68694
 0.68661	 0.68661
 0.68759	 0.68759
 0.68957	 0.68957
 0.68957	 0.68957
 0.30685	 0.30685
 0.00534	 0.00534
 0.00468	 0.00468
 0.00436	 0.00436
 0.00436	 0.00436
 0.00436	 0.00436
 0.00403	 0.00403
 0.00436	 0.00436
 0.00468	 0.00468
 0.00370	 0.00370
 0.12930	 0.12930
 0.69779	 0.69779
 0.69779	 0.69779
 0.69746	 0.69746
 0.69779	 0.69779
 0.69943	 0.69943
 0.37327	 0.37327
 0.00600	 0.00600
 0.00468	 0.00468
 0.00468	 0.00468
 0.00436	 0.00436
 0.00468	 0.00468
 0.00436	 0.00436
 0.00436	 0.00436
 0.00436	 0.00436
 0.00468	 0.00468
 0.15429	 0.15429
 0.68759	 0.68759
 0.68759	 0.68759
 0.68694	 0.68694
 0.68398	 0.68398
 0.68398	 0.68398
 0.36044	 0.36044
 0.00600	 0.00600
 0.00403	 0.00403
 0.00468	 0.00468
 0.00436	 0.00436
 0.00436	 0.00436
 0.00436	 0.00436
 0.00436	 0.00436
 0.00501	 0.00501
 0.00501	 0.00501
 0.08360	 0.08360
 0.67609	 0.67609
 0.67609	 0.67609
 0.67674	 0.67674
 0.67773	 0.67773
 0.67674	 0.67674
 0.27890	 0.27890
 0.00567	 0.00567
 0.00436	 0.00436
 0.00436	 0.00436
 0.00436	 0.00436
 0.00501	 0.00501
 0.00468	 0.00468
 0.00468	 0.00468
 0.00436	 0.00436
 0.00468	 0.00468
 0.03132	 0.03132
 0.67444	 0.67444
 0.67346	 0.67346
 0.67444	 0.67444
 0.67510	 0.67510
 0.67378	 0.67378
 0.51629	 0.51629
 0.00666	 0.00666
 0.00403	 0.00403
 0.00436	 0.00436
 0.00436	 0.00436
 0.00468	 0.00468
 0.00501	 0.00501
 0.00501	 0.00501
 0.00436	 0.00436
 0.00436	 0.00436
 0.03000	 0.03000
 0.68299	 0.68299
 0.67970	 0.67970
 0.68003	 0.68003
 0.68003	 0.68003
 0.67872	 0.67872
 0.57219	 0.57219
 0.00863	 0.00863
 0.00468	 0.00468
 0.00436	 0.00436
 0.00468	 0.00468
 0.00468	 0.00468
 0.00403	 0.00403
 0.00436	 0.00436
 0.00436	 0.00436
 0.00436	 0.00436
 0.01849	 0.01849
 0.68431	 0.68431
 0.68727	 0.68727
 0.68858	 0.68858
 0.68891	 0.68891
 0.69088	 0.69088
 0.63827	 0.63827
 0.01093	 0.01093
 0.00436	 0.00436
 0.00436	 0.00436
 0.00403	 0.00403
 0.00436	 0.00436
 0.00436	 0.00436
 0.00436	 0.00436
 0.00436	 0.00436
 0.00370	 0.00370
 0.01323	 0.01323
 0.69647	 0.69647
 0.70601	 0.70601
 0.70732	 0.70732
 0.70601	 0.70601
 0.70469	 0.70469
 0.69351	 0.69351
 0.01948	 0.01948
 0.00468	 0.00468
 0.00468	 0.00468
 0.00436	 0.00436
 0.00468	 0.00468
 0.00436	 0.00436
 0.00468	 0.00468
 0.00468	 0.00468
 0.00436	 0.00436
 0.00896	 0.00896
 0.70338	 0.70338
 0.70929	 0.70929
 0.70765	 0.70765
 0.70831	 0.70831
 0.71028	 0.71028
 0.67378	 0.67378
 0.01849	 0.01849
 0.00468	 0.00468
 0.00403	 0.00403
 0.00436	 0.00436
 0.00501	 0.00501
 0.00403	 0.00403
 0.00501	 0.00501
 0.00436	 0.00436
 0.00436	 0.00436
 0.00436	 0.00436
 0.67970	 0.67970
 0.70535	 0.70535
 0.70765	 0.70765
 0.70897	 0.70897
 0.70732	 0.70732
 0.72113	 0.72113
 0.01948	 0.01948
 0.00436	 0.00436
 0.00370	 0.00370
 0.00403	 0.00403
 0.00436	 0.00436
 0.00468	 0.00468
 0.00436	 0.00436
 0.00534	 0.00534
 0.00468	 0.00468
 0.00468	 0.00468
 0.67576	 0.67576
 0.69812	 0.69812
 0.69581	 0.69581
 0.69384	 0.69384
 0.69351	 0.69351
 0.70042	 0.70042
 0.03460	 0.03460
 0.00468	 0.00468
 0.00468	 0.00468
 0.00468	 0.00468
 0.00403	 0.00403
 0.00436	 0.00436
 0.00403	 0.00403
 0.00403	 0.00403
 0.00468	 0.00468
 0.00403	 0.00403
 0.65702	 0.65702
 0.68365	 0.68365
 0.68266	 0.68266
 0.68398	 0.68398
 0.68431	 0.68431
 0.68661	 0.68661
 0.03033	 0.03033
 0.00436	 0.00436
 0.00436	 0.00436
 0.00436	 0.00436
 0.00436	 0.00436
 0.00436	 0.00436
 0.00436	 0.00436
 0.00403	 0.00403
 0.00468	 0.00468
 0.00468	 0.00468
 0.65143	 0.65143
 0.67378	 0.67378
 0.67346	 0.67346
 0.67115	 0.67115
 0.66984	 0.66984
 0.67115	 0.67115
 0.01652	 0.01652
 0.00436	 0.00436
 0.00468	 0.00468
 0.00436	 0.00436
 0.00468	 0.00468
 0.00403	 0.00403
 0.00468	 0.00468
 0.00468	 0.00468
 0.00403	 0.00403
 0.00436	 0.00436
 0.58205	 0.58205
 0.66524	 0.66524
 0.66589	 0.66589
 0.66589	 0.66589
 0.66589	 0.66589
 0.66589	 0.66589
 0.06584	 0.06584
 0.00436	 0.00436
 0.00468	 0.00468
 0.00468	 0.00468
 0.00436	 0.00436
 0.00468	 0.00468
 0.00436	 0.00436
 0.00436	 0.00436
 0.00468	 0.00468
 0.00436	 0.00436
 0.56857	 0.56857
 0.67017	 0.67017
 0.67280	 0.67280
 0.67411	 0.67411
 0.67444	 0.67444
 0.67411	 0.67411
 0.10102	 0.10102
 0.00436	 0.00436
 0.00370	 0.00370
 0.00501	 0.00501
 0.00468	 0.00468
 0.00436	 0.00436
 0.00436	 0.00436
 0.00468	 0.00468
 0.00403	 0.00403
 0.00468	 0.00468
 0.53405	 0.53405
 0.67937	 0.67937
 0.68003	 0.68003
 0.68332	 0.68332
 0.68332	 0.68332
 0.68431	 0.68431
 0.14837	 0.14837
 0.00501	 0.00501
 0.00468	 0.00468
 0.00436	 0.00436
 0.00468	 0.00468
 0.00468	 0.00468
 0.00370	 0.00370
 0.00468	 0.00468
 0.00468	 0.00468
 0.00403	 0.00403
 0.50281	 0.50281
 0.69713	 0.69713
 0.70009	 0.70009
 0.69943	 0.69943
 0.69976	 0.69976
 0.70305	 0.70305
 0.24898	 0.24898
 0.00534	 0.00534
 0.00436	 0.00436
 0.00337	 0.00337
 0.00468	 0.00468
 0.00370	 0.00370
 0.00436	 0.00436
 0.00370	 0.00370
 0.00501	 0.00501
 0.00468	 0.00468
 0.41272	 0.41272
 0.70831	 0.70831
 0.70864	 0.70864
 0.70864	 0.70864
 0.70962	 0.70962
 0.70929	 0.70929
 0.28252	 0.28252
 0.00534	 0.00534
 0.00403	 0.00403
 0.00436	 0.00436
 0.00436	 0.00436
 0.00436	 0.00436
 0.00468	 0.00468
 0.00403	 0.00403
 0.00436	 0.00436
 0.00468	 0.00468
 0.14804	 0.14804
 0.71982	 0.71982
 0.72113	 0.72113
 0.72310	 0.72310
 0.72179	 0.72179
 0.72245	 0.72245
 0.27528	 0.27528
 0.00534	 0.00534
 0.00534	 0.00534
 0.00436	 0.00436
 0.00403	 0.00403
 0.00436	 0.00436
 0.00403	 0.00403
 0.00436	 0.00436
 0.00468	 0.00468
 0.00436	 0.00436
 0.15100	 0.15100
 0.72245	 0.72245
 0.72409	 0.72409
 0.72212	 0.72212
 0.71916	 0.71916
 0.71883	 0.71883
 0.34039	 0.34039
 0.00534	 0.00534
 0.00468	 0.00468
 0.00468	 0.00468
 0.00436	 0.00436
 0.00436	 0.00436
 0.00501	 0.00501
 0.00468	 0.00468
 0.00468	 0.00468
 0.00436	 0.00436
 0.16843	 0.16843
 0.71554	 0.71554
 0.71390	 0.71390
 0.71488	 0.71488
 0.71357	 0.71357
 0.71291	 0.71291
 0.34861	 0.34861
 0.00567	 0.00567
 0.00468	 0.00468
 0.00370	 0.00370
 0.00468	 0.00468
 0.00468	 0.00468
 0.00436	 0.00436
 0.00436	 0.00436
 0.00436	 0.00436
 0.00403	 0.00403
 0.09346	 0.09346
 0.71620	 0.71620
 0.71817	 0.71817
 0.71883	 0.71883
 0.72146	 0.72146
 0.72343	 0.72343
 0.20689	 0.20689
 0.00534	 0.00534
 0.00436	 0.00436
 0.00436	 0.00436
 0.00403	 0.00403
 0.00403	 0.00403
 0.00436	 0.00436
 0.00436	 0.00436
 0.00436	 0.00436
 0.00436	 0.00436
 0.04447	 0.04447
 0.74809	 0.74809
 0.75204	 0.75204
 0.75401	 0.75401
 0.75763	 0.75763
 0.76092	 0.76092
 0.52583	 0.52583
 0.00666	 0.00666
 0.00403	 0.00403
 0.00436	 0.00436
 0.00468	 0.00468
 0.00436	 0.00436
 0.00436	 0.00436
 0.00436	 0.00436
 0.00436	 0.00436
 0.00436	 0.00436
 0.04282	 0.04282
 0.79971	 0.79971
 0.80070	 0.80070
 0.80234	 0.80234
 0.80563	 0.80563
 0.80793	 0.80793
 0.62414	 0.62414
 0.00830	 0.00830
 0.00468	 0.00468
 0.00436	 0.00436
 0.00436	 0.00436
 0.00436	 0.00436
 0.00468	 0.00468
 0.00436	 0.00436
 0.00436	 0.00436
 0.00436	 0.00436
 0.03296	 0.03296
 0.81813	 0.81813
 0.81813	 0.81813
 0.81944	 0.81944
 0.81911	 0.81911
 0.82076	 0.82076
 0.69384	 0.69384
 0.00830	 0.00830
 0.00468	 0.00468
 0.00370	 0.00370
 0.00436	 0.00436
 0.00468	 0.00468
 0.00468	 0.00468
 0.00436	 0.00436
 0.00468	 0.00468
 0.00436	 0.00436
 0.02474	 0.02474
 0.83391	 0.83391
 0.83720	 0.83720
 0.83785	 0.83785
 0.84048	 0.84048
 0.84180	 0.84180
 0.78262	 0.78262
 0.01586	 0.01586
 0.00501	 0.00501
 0.00468	 0.00468
 0.00436	 0.00436
 0.00468	 0.00468
 0.00403	 0.00403
 0.00403	 0.00403
 0.00436	 0.00436
 0.00468	 0.00468
 0.01488	 0.01488
 0.82766	 0.82766
 0.83259	 0.83259
 0.83259	 0.83259
 0.83029	 0.83029
 0.82930	 0.82930
 0.77472	 0.77472
 0.01422	 0.01422
 0.00436	 0.00436
 0.00403	 0.00403
 0.00403	 0.00403
 0.00403	 0.00403
 0.00436	 0.00436
 0.00468	 0.00468
 0.00468	 0.00468
 0.00436	 0.00436
 0.00534	 0.00534
 0.79577	 0.79577
 0.81352	 0.81352
 0.81089	 0.81089
 0.81023	 0.81023
 0.80826	 0.80826
 0.80958	 0.80958
 0.01389	 0.01389
 0.00436	 0.00436
 0.00468	 0.00468
 0.00468	 0.00468
 0.00468	 0.00468
 0.00436	 0.00436
 0.00436	 0.00436
 0.00501	 0.00501
 0.00403	 0.00403
 0.00501	 0.00501
 0.77111	 0.77111
 0.77966	 0.77966
 0.77538	 0.77538
 0.77407	 0.77407
 0.77275	 0.77275
 0.77144	 0.77144
 0.02638	 0.02638
 0.00468	 0.00468
 0.00468	 0.00468
 0.00436	 0.00436
 0.00468	 0.00468
 0.00436	 0.00436
 0.00403	 0.00403
 0.00436	 0.00436
 0.00436	 0.00436
 0.00534	 0.00534
 0.71127	 0.71127
 0.72475	 0.72475
 0.72113	 0.72113
 0.71784	 0.71784
 0.71258	 0.71258
 0.70535	 0.70535
 0.02047	 0.02047
 0.00468	 0.00468
 0.00436	 0.00436
 0.00468	 0.00468
 0.00403	 0.00403
 0.00436	 0.00436
 0.00468	 0.00468
 0.00403	 0.00403
 0.00403	 0.00403
 0.00468	 0.00468
 0.66425	 0.66425
 0.67674	 0.67674
 0.67346	 0.67346
 0.67083	 0.67083
 0.66688	 0.66688
 0.66885	 0.66885
 0.01159	 0.01159
 0.00468	 0.00468
 0.00436	 0.00436
 0.00436	 0.00436
 0.00436	 0.00436
 0.00436	 0.00436
 0.00370	 0.00370
 0.00468	 0.00468
 0.00403	 0.00403
 0.00436	 0.00436
 0.59981	 0.59981
 0.64288	 0.64288
 0.64025	 0.64025
 0.63926	 0.63926
 0.63893	 0.63893
 0.63827	 0.63827
 0.03724	 0.03724
 0.00403	 0.00403
 0.00436	 0.00436
 0.00436	 0.00436
 0.00436	 0.00436
 0.00370	 0.00370
 0.00468	 0.00468
 0.00436	 0.00436
 0.00403	 0.00403
 0.00403	 0.00403
 0.58961	 0.58961
 0.64025	 0.64025
 0.64058	 0.64058
 0.64091	 0.64091
 0.64189	 0.64189
 0.64222	 0.64222
 0.05696	 0.05696
 0.00468	 0.00468
 0.00468	 0.00468
 0.00468	 0.00468
 0.00501	 0.00501
 0.00468	 0.00468
 0.00468	 0.00468
 0.00468	 0.00468
 0.00436	 0.00436
 0.00468	 0.00468
 0.60276	 0.60276
 0.65406	 0.65406
 0.65669	 0.65669
 0.65932	 0.65932
 0.66063	 0.66063
 0.66293	 0.66293
 0.08524	 0.08524
 0.00501	 0.00501
 0.00501	 0.00501
 0.00468	 0.00468
 0.00468	 0.00468
 0.00436	 0.00436
 0.00436	 0.00436
 0.00436	 0.00436
 0.00436	 0.00436
 0.00436	 0.00436
 0.60835	 0.60835
 0.67872	 0.67872
 0.67872	 0.67872
 0.67872	 0.67872
 0.67872	 0.67872
 0.67970	 0.67970
 0.15199	 0.15199
 0.00468	 0.00468
 0.00436	 0.00436
 0.00436	 0.00436
 0.00468	 0.00468
 0.00468	 0.00468
 0.00436	 0.00436
 0.00436	 0.00436
 0.00436	 0.00436
 0.00468	 0.00468
 0.55903	 0.55903
 0.67083	 0.67083
 0.67148	 0.67148
 0.67214	 0.67214
 0.67181	 0.67181
 0.67181	 0.67181
 0.15790	 0.15790
 0.00403	 0.00403
 0.00468	 0.00468
 0.00436	 0.00436
 0.00436	 0.00436
 0.00403	 0.00403
 0.00468	 0.00468
 0.00403	 0.00403
 0.00468	 0.00468
 0.00436	 0.00436
 0.30915	 0.30915
 0.67707	 0.67707
 0.67740	 0.67740
 0.67773	 0.67773
 0.67937	 0.67937
 0.68003	 0.68003
 0.15199	 0.15199
 0.00436	 0.00436
 0.00403	 0.00403
 0.00436	 0.00436
 0.00468	 0.00468
 0.00436	 0.00436
 0.00436	 0.00436
 0.00403	 0.00403
 0.00403	 0.00403
 0.00468	 0.00468
 0.33841	 0.33841
 0.68398	 0.68398
 0.68398	 0.68398
 0.68135	 0.68135
 0.68102	 0.68102
 0.68003	 0.68003
 0.20163	 0.20163
 0.00534	 0.00534
 0.00403	 0.00403
 0.00403	 0.00403
 0.00403	 0.00403
 0.00436	 0.00436
 0.00468	 0.00468
 0.00403	 0.00403
 0.00403	 0.00403
 0.00468	 0.00468
 0.37195	 0.37195
 0.66359	 0.66359
 0.66556	 0.66556
 0.66589	 0.66589
 0.66524	 0.66524
 0.66392	 0.66392
 0.19736	 0.19736
 0.00468	 0.00468
 0.00468	 0.00468
 0.00436	 0.00436
 0.00436	 0.00436
 0.00468	 0.00468
 0.00436	 0.00436
 0.00436	 0.00436
 0.00468	 0.00468
 0.00468	 0.00468
 0.23681	 0.23681
 0.66063	 0.66063
 0.65899	 0.65899
 0.65702	 0.65702
 0.65603	 0.65603
 0.65471	 0.65471
 0.10299	 0.10299
 0.00468	 0.00468
 0.00501	 0.00501
 0.00534	 0.00534
 0.00436	 0.00436
 0.00468	 0.00468
 0.00501	 0.00501
 0.00436	 0.00436
 0.00468	 0.00468
 0.00436	 0.00436
 0.13423	 0.13423
 0.64617	 0.64617
 0.64452	 0.64452
 0.64649	 0.64649
 0.64814	 0.64814
 0.64847	 0.64847
 0.32559	 0.32559
 0.00600	 0.00600
 0.00436	 0.00436
 0.00468	 0.00468
 0.00403	 0.00403
 0.00436	 0.00436
 0.00436	 0.00436
 0.00436	 0.00436
 0.00436	 0.00436
 0.00436	 0.00436
 0.12305	 0.12305
 0.65044	 0.65044
 0.65044	 0.65044
 0.65176	 0.65176
 0.65176	 0.65176
 0.65208	 0.65208
 0.38116	 0.38116
 0.00534	 0.00534
 0.00436	 0.00436
 0.00403	 0.00403
 0.00436	 0.00436
 0.00403	 0.00403
 0.00436	 0.00436
 0.00468	 0.00468
 0.00403	 0.00403
 0.00436	 0.00436
 0.09806	 0.09806
 0.65176	 0.65176
 0.65208	 0.65208
 0.65077	 0.65077
 0.65110	 0.65110
 0.65143	 0.65143
 0.45152	 0.45152
 0.00633	 0.00633
 0.00468	 0.00468
 0.00436	 0.00436
 0.00468	 0.00468
 0.00468	 0.00468
 0.00436	 0.00436
 0.00436	 0.00436
 0.00403	 0.00403
 0.00403	 0.00403
 0.07768	 0.07768
 0.66162	 0.66162
 0.66195	 0.66195
 0.66228	 0.66228
 0.66359	 0.66359
 0.66425	 0.66425
 0.54029	 0.54029
 0.00962	 0.00962
 0.00403	 0.00403
 0.00403	 0.00403
 0.00436	 0.00436
 0.00436	 0.00436
 0.00436	 0.00436
 0.00403	 0.00403
 0.00534	 0.00534
 0.00403	 0.00403
 0.05400	 0.05400
 0.66622	 0.66622
 0.66392	 0.66392
 0.66293	 0.66293
 0.66261	 0.66261
 0.66162	 0.66162
 0.55246	 0.55246
 0.00830	 0.00830
 0.00436	 0.00436
 0.00468	 0.00468
 0.00436	 0.00436
 0.00468	 0.00468
 0.00468	 0.00468
 0.00436	 0.00436
 0.00468	 0.00468
 0.00501	 0.00501
 0.00995	 0.00995
 0.64814	 0.64814
 0.65669	 0.65669
 0.65636	 0.65636
 0.65669	 0.65669
 0.65833	 0.65833
 0.59981	 0.59981
 0.00896	 0.00896
 0.00436	 0.00436
 0.00468	 0.00468
 0.00436	 0.00436
 0.00436	 0.00436
 0.00403	 0.00403
 0.00370	 0.00370
 0.00436	 0.00436
 0.00501	 0.00501
 0.01126	 0.01126
 0.64058	 0.64058
 0.64288	 0.64288
 0.64288	 0.64288
 0.64058	 0.64058
 0.63893	 0.63893
 0.60112	 0.60112
 0.01290	 0.01290
 0.00436	 0.00436
 0.00403	 0.00403
 0.00436	 0.00436
 0.00403	 0.00403
 0.00468	 0.00468
 0.00436	 0.00436
 0.00501	 0.00501
 0.00436	 0.00436
 0.01027	 0.01027
 0.61953	 0.61953
 0.62545	 0.62545
 0.62381	 0.62381
 0.62151	 0.62151
 0.62085	 0.62085
 0.56167	 0.56167
 0.01159	 0.01159
 0.00468	 0.00468
 0.00436	 0.00436
 0.00436	 0.00436
 0.00468	 0.00468
 0.00436	 0.00436
 0.00403	 0.00403
 0.00403	 0.00403
 0.00370	 0.00370
 0.00666	 0.00666
 0.60046	 0.60046
 0.61098	 0.61098
 0.61098	 0.61098
 0.61066	 0.61066
 0.60835	 0.60835
 0.57613	 0.57613
 0.00797	 0.00797
 0.00436	 0.00436
 0.00403	 0.00403
 0.00436	 0.00436
 0.00436	 0.00436
 0.00403	 0.00403
 0.00436	 0.00436
 0.00403	 0.00403
 0.00403	 0.00403
 0.00468	 0.00468
 0.58632	 0.58632
 0.60013	 0.60013
 0.59750	 0.59750
 0.59257	 0.59257
 0.59191	 0.59191
 0.59389	 0.59389
 0.01981	 0.01981
 0.00468	 0.00468
 0.00468	 0.00468
 0.00468	 0.00468
 0.00436	 0.00436
 0.00501	 0.00501
 0.00501	 0.00501
 0.00370	 0.00370
 0.00436	 0.00436
 0.00468	 0.00468
 0.56594	 0.56594
 0.58731	 0.58731
 0.58731	 0.58731
 0.58764	 0.58764
 0.58830	 0.58830
 0.58896	 0.58896
 0.03033	 0.03033
 0.00436	 0.00436
 0.00436	 0.00436
 0.00403	 0.00403
 0.00436	 0.00436
 0.00370	 0.00370
 0.00436	 0.00436
 0.00436	 0.00436
 0.00468	 0.00468
 0.00501	 0.00501
 0.56725	 0.56725
 0.58896	 0.58896
 0.58896	 0.58896
 0.58928	 0.58928
 0.58797	 0.58797
 0.58698	 0.58698
 0.03954	 0.03954
 0.00370	 0.00370
 0.00468	 0.00468
 0.00468	 0.00468
 0.00403	 0.00403
 0.00436	 0.00436
 0.00436	 0.00436
 0.00436	 0.00436
 0.00468	 0.00468
 0.00436	 0.00436
 0.55706	 0.55706
 0.58994	 0.58994
 0.58928	 0.58928
 0.59093	 0.59093
 0.59356	 0.59356
 0.59487	 0.59487
 0.08129	 0.08129
 0.00436	 0.00436
 0.00436	 0.00436
 0.00436	 0.00436
 0.00436	 0.00436
 0.00403	 0.00403
 0.00468	 0.00468
 0.00468	 0.00468
 0.00436	 0.00436
 0.00403	 0.00403
 0.54818	 0.54818
 0.60112	 0.60112
 0.60244	 0.60244
 0.60276	 0.60276
 0.60507	 0.60507
 0.60540	 0.60540
 0.08524	 0.08524
 0.00436	 0.00436
 0.00403	 0.00403
 0.00436	 0.00436
 0.00436	 0.00436
 0.00436	 0.00436
 0.00403	 0.00403
 0.00436	 0.00436
 0.00436	 0.00436
 0.00534	 0.00534
 0.39661	 0.39661
 0.60507	 0.60507
 0.60474	 0.60474
 0.60211	 0.60211
 0.60309	 0.60309
 0.60244	 0.60244
 0.08294	 0.08294
 0.00468	 0.00468
 0.00468	 0.00468
 0.00436	 0.00436
 0.00468	 0.00468
 0.00468	 0.00468
 0.00436	 0.00436
 0.00436	 0.00436
 0.00436	 0.00436
 0.00436	 0.00436
 0.40614	 0.40614
 0.59718	 0.59718
 0.59685	 0.59685
 0.59750	 0.59750
 0.59816	 0.59816
 0.59816	 0.59816
 0.12996	 0.12996
 0.00501	 0.00501
 0.00436	 0.00436
 0.00436	 0.00436
 0.00468	 0.00468
 0.00403	 0.00403
 0.00403	 0.00403
 0.00436	 0.00436
 0.00403	 0.00403
 0.00436	 0.00436
 0.41042	 0.41042
 0.59191	 0.59191
 0.59027	 0.59027
 0.58896	 0.58896
 0.59093	 0.59093
 0.58797	 0.58797
 0.12930	 0.12930
 0.00468	 0.00468
 0.00468	 0.00468
 0.00436	 0.00436
 0.00436	 0.00436
 0.00436	 0.00436
 0.00468	 0.00468
 0.00436	 0.00436
 0.00501	 0.00501
 0.00403	 0.00403
 0.29501	 0.29501
 0.58041	 0.58041
 0.57942	 0.57942
 0.58205	 0.58205
 0.58402	 0.58402
 0.58501	 0.58501
 0.05335	 0.05335
 0.00501	 0.00501
 0.00468	 0.00468
 0.00436	 0.00436
 0.00468	 0.00468
 0.00403	 0.00403
 0.00403	 0.00403
 0.00403	 0.00403
 0.00403	 0.00403
 0.00436	 0.00436
 0.19210	 0.19210
 0.60211	 0.60211
 0.60572	 0.60572
 0.60901	 0.60901
 0.61197	 0.61197
 0.61427	 0.61427
 0.21577	 0.21577
 0.00501	 0.00501
 0.00436	 0.00436
 0.00403	 0.00403
 0.00403	 0.00403
 0.00403	 0.00403
 0.00403	 0.00403
 0.00436	 0.00436
 0.00436	 0.00436
 0.00436	 0.00436
 0.20163	 0.20163
 0.65044	 0.65044
 0.65274	 0.65274
 0.65340	 0.65340
 0.65636	 0.65636
 0.65899	 0.65899
 0.29633	 0.29633
 0.00534	 0.00534
 0.00436	 0.00436
 0.00436	 0.00436
 0.00436	 0.00436
 0.00436	 0.00436
 0.00468	 0.00468
 0.00468	 0.00468
 0.00468	 0.00468
 0.00403	 0.00403
 0.17204	 0.17204
 0.69022	 0.69022
 0.69384	 0.69384
 0.69976	 0.69976
 0.70338	 0.70338
 0.70568	 0.70568
 0.38576	 0.38576
 0.00600	 0.00600
 0.00436	 0.00436
 0.00501	 0.00501
 0.00468	 0.00468
 0.00436	 0.00436
 0.00436	 0.00436
 0.00403	 0.00403
 0.00436	 0.00436
 0.00436	 0.00436
 0.16678	 0.16678
 0.73691	 0.73691
 0.73691	 0.73691
 0.73921	 0.73921
 0.74316	 0.74316
 0.74480	 0.74480
 0.49130	 0.49130
 0.00731	 0.00731
 0.00436	 0.00436
 0.00436	 0.00436
 0.00468	 0.00468
 0.00436	 0.00436
 0.00436	 0.00436
 0.00436	 0.00436
 0.00468	 0.00468
 0.00436	 0.00436
 0.13357	 0.13357
 0.78163	 0.78163
 0.78426	 0.78426
 0.78558	 0.78558
 0.79149	 0.79149
 0.79577	 0.79577
 0.58567	 0.58567
 0.00699	 0.00699
 0.00468	 0.00468
 0.00403	 0.00403
 0.00436	 0.00436
 0.00403	 0.00403
 0.00436	 0.00436
 0.00403	 0.00403
 0.00468	 0.00468
 0.00468	 0.00468
 0.03165	 0.03165
 0.82832	 0.82832
 0.82865	 0.82865
 0.83062	 0.83062
 0.83226	 0.83226
 0.83226	 0.83226
 0.62249	 0.62249
 0.00666	 0.00666
 0.00468	 0.00468
 0.00468	 0.00468
 0.00468	 0.00468
 0.00436	 0.00436
 0.00436	 0.00436
 0.00436	 0.00436
 0.00436	 0.00436
 0.00436	 0.00436
 0.04019	 0.04019
 0.84969	 0.84969
 0.84936	 0.84936
 0.84903	 0.84903
 0.85101	 0.85101
 0.85166	 0.85166
 0.67313	 0.67313
 0.00863	 0.00863
 0.00436	 0.00436
 0.00468	 0.00468
 0.00501	 0.00501
 0.00436	 0.00436
 0.00501	 0.00501
 0.00436	 0.00436
 0.00436	 0.00436
 0.00403	 0.00403
 0.04513	 0.04513
 0.85331	 0.85331
 0.85528	 0.85528
 0.85857	 0.85857
 0.86087	 0.86087
 0.86054	 0.86054
 0.64682	 0.64682
 0.00797	 0.00797
 0.00436	 0.00436
 0.00403	 0.00403
 0.00403	 0.00403
 0.00468	 0.00468
 0.00468	 0.00468
 0.00468	 0.00468
 0.00501	 0.00501
 0.00370	 0.00370
 0.02507	 0.02507
 0.86021	 0.86021
 0.86317	 0.86317
 0.86186	 0.86186
 0.86284	 0.86284
 0.86153	 0.86153
 0.62512	 0.62512
 0.00534	 0.00534
 0.00468	 0.00468
 0.00403	 0.00403
 0.00436	 0.00436
 0.00468	 0.00468
 0.00468	 0.00468
 0.00436	 0.00436
 0.00436	 0.00436
 0.00436	 0.00436
 0.00666	 0.00666
 0.84640	 0.84640
 0.85495	 0.85495
 0.85561	 0.85561
 0.85659	 0.85659
 0.85659	 0.85659
 0.81155	 0.81155
 0.01290	 0.01290
 0.00436	 0.00436
 0.00436	 0.00436
 0.00468	 0.00468
 0.00436	 0.00436
 0.00403	 0.00403
 0.00436	 0.00436
 0.00501	 0.00501
 0.00436	 0.00436
 0.00666	 0.00666
 0.84805	 0.84805
 0.85791	 0.85791
 0.85627	 0.85627
 0.85495	 0.85495
 0.85495	 0.85495
 0.83522	 0.83522
 0.01751	 0.01751
 0.00501	 0.00501
 0.00403	 0.00403
 0.00436	 0.00436
 0.00436	 0.00436
 0.00436	 0.00436
 0.00436	 0.00436
 0.00468	 0.00468
 0.00403	 0.00403
 0.00567	 0.00567
 0.84279	 0.84279
 0.85166	 0.85166
 0.85166	 0.85166
 0.85331	 0.85331
 0.85232	 0.85232
 0.85166	 0.85166
 0.02244	 0.02244
 0.00468	 0.00468
 0.00468	 0.00468
 0.00436	 0.00436
 0.00436	 0.00436
 0.00436	 0.00436
 0.00468	 0.00468
 0.00468	 0.00468
 0.00403	 0.00403
 0.00567	 0.00567
 0.82832	 0.82832
 0.84870	 0.84870
 0.84805	 0.84805
 0.84772	 0.84772
 0.84607	 0.84607
 0.84706	 0.84706
 0.05302	 0.05302
 0.00501	 0.00501
 0.00370	 0.00370
 0.00436	 0.00436
 0.00403	 0.00403
 0.00403	 0.00403
 0.00403	 0.00403
 0.00436	 0.00436
 0.00468	 0.00468
 0.00534	 0.00534
 0.80070	 0.80070
 0.83391	 0.83391
 0.83161	 0.83161
 0.82930	 0.82930
 0.82635	 0.82635
 0.81813	 0.81813
 0.04644	 0.04644
 0.00468	 0.00468
 0.00534	 0.00534
 0.00436	 0.00436
 0.00468	 0.00468
 0.00436	 0.00436
 0.00468	 0.00468
 0.00436	 0.00436
 0.00436	 0.00436
 0.00436	 0.00436
 0.70009	 0.70009
 0.81056	 0.81056
 0.80859	 0.80859
 0.80596	 0.80596
 0.80267	 0.80267
 0.81089	 0.81089
 0.04874	 0.04874
 0.00436	 0.00436
 0.00468	 0.00468
 0.00436	 0.00436
 0.00436	 0.00436
 0.00370	 0.00370
 0.00436	 0.00436
 0.00534	 0.00534
 0.00403	 0.00403
 0.00436	 0.00436
 0.68990	 0.68990
 0.78558	 0.78558
 0.78590	 0.78590
 0.78031	 0.78031
 0.77867	 0.77867
 0.77637	 0.77637
 0.09149	 0.09149
 0.00436	 0.00436
 0.00436	 0.00436
 0.00468	 0.00468
 0.00468	 0.00468
 0.00436	 0.00436
 0.00436	 0.00436
 0.00370	 0.00370
 0.00468	 0.00468
 0.00468	 0.00468
 0.64748	 0.64748
 0.74612	 0.74612
 0.74349	 0.74349
 0.74020	 0.74020
 0.73921	 0.73921
 0.73790	 0.73790
 0.07735	 0.07735
 0.00501	 0.00501
 0.00468	 0.00468
 0.00468	 0.00468
 0.00468	 0.00468
 0.00501	 0.00501
 0.00436	 0.00436
 0.00436	 0.00436
 0.00436	 0.00436
 0.00403	 0.00403
 0.55542	 0.55542
 0.71554	 0.71554
 0.71423	 0.71423
 0.71324	 0.71324
 0.71094	 0.71094
 0.70962	 0.70962
 0.03263	 0.03263
 0.00468	 0.00468
 0.00436	 0.00436
 0.00468	 0.00468
 0.00468	 0.00468
 0.00501	 0.00501
 0.00468	 0.00468
 0.00436	 0.00436
 0.00436	 0.00436
 0.00436	 0.00436
 0.39694	 0.39694
 0.71719	 0.71719
 0.71949	 0.71949
 0.72014	 0.72014
 0.72179	 0.72179
 0.72409	 0.72409
 0.14442	 0.14442
 0.00534	 0.00534
 0.00468	 0.00468
 0.00436	 0.00436
 0.00436	 0.00436
 0.00436	 0.00436
 0.00436	 0.00436
 0.00403	 0.00403
 0.00436	 0.00436
 0.00403	 0.00403
 0.40943	 0.40943
 0.75664	 0.75664
 0.76059	 0.76059
 0.76552	 0.76552
 0.77078	 0.77078
 0.77472	 0.77472
 0.21380	 0.21380
 0.00534	 0.00534
 0.00436	 0.00436
 0.00436	 0.00436
 0.00436	 0.00436
 0.00403	 0.00403
 0.00403	 0.00403
 0.00436	 0.00436
 0.00403	 0.00403
 0.00403	 0.00403
 0.37787	 0.37787
 0.79938	 0.79938
 0.80530	 0.80530
 0.80629	 0.80629
 0.80563	 0.80563
 0.80760	 0.80760
 0.29107	 0.29107
 0.00501	 0.00501
 0.00534	 0.00534
 0.00468	 0.00468
 0.00468	 0.00468
 0.00501	 0.00501
 0.00403	 0.00403
 0.00436	 0.00436
 0.00436	 0.00436
 0.00403	 0.00403
 0.37096	 0.37096
 0.81648	 0.81648
 0.81747	 0.81747
 0.81878	 0.81878
 0.82109	 0.82109
 0.82372	 0.82372
 0.39201	 0.39201
 0.00600	 0.00600
 0.00468	 0.00468
 0.00436	 0.00436
 0.00436	 0.00436
 0.00403	 0.00403
 0.00436	 0.00436
 0.00370	 0.00370
 0.00436	 0.00436
 0.00468	 0.00468
 0.30520	 0.30520
 0.84016	 0.84016
 0.84016	 0.84016
 0.84081	 0.84081
 0.84180	 0.84180
 0.84443	 0.84443
 0.46007	 0.46007
 0.00600	 0.00600
 0.00436	 0.00436
 0.00468	 0.00468
 0.00501	 0.00501
 0.00436	 0.00436
 0.00468	 0.00468
 0.00468	 0.00468
 0.00436	 0.00436
 0.00403	 0.00403
 0.09379	 0.09379
 0.84377	 0.84377
 0.84377	 0.84377
 0.84443	 0.84443
 0.84213	 0.84213
 0.84180	 0.84180
 0.43343	 0.43343
 0.00534	 0.00534
 0.00403	 0.00403
 0.00436	 0.00436
 0.00436	 0.00436
 0.00436	 0.00436
 0.00468	 0.00468
 0.00501	 0.00501
 0.00468	 0.00468
 0.00436	 0.00436
 0.09905	 0.09905
 0.83259	 0.83259
 0.83062	 0.83062
 0.82930	 0.82930
 0.83128	 0.83128
 0.83062	 0.83062
 0.50314	 0.50314
 0.00699	 0.00699
 0.00468	 0.00468
 0.00436	 0.00436
 0.00436	 0.00436
 0.00436	 0.00436
 0.00403	 0.00403
 0.00436	 0.00436
 0.00468	 0.00468
 0.00436	 0.00436
 0.11384	 0.11384
 0.80925	 0.80925
 0.80728	 0.80728
 0.80497	 0.80497
 0.80169	 0.80169
 0.79873	 0.79873
 0.48045	 0.48045
 0.00567	 0.00567
 0.00468	 0.00468
 0.00403	 0.00403
 0.00436	 0.00436
 0.00468	 0.00468
 0.00468	 0.00468
 0.00468	 0.00468
 0.00436	 0.00436
 0.00370	 0.00370
 0.05861	 0.05861
 0.77078	 0.77078
 0.76453	 0.76453
 0.76355	 0.76355
 0.76124	 0.76124
 0.75763	 0.75763
 0.36439	 0.36439
 0.00534	 0.00534
 0.00436	 0.00436
 0.00436	 0.00436
 0.00468	 0.00468
 0.00436	 0.00436
 0.00403	 0.00403
 0.00436	 0.00436
 0.00403	 0.00403
 0.00436	 0.00436
 0.01948	 0.01948
 0.73461	 0.73461
 0.73428	 0.73428
 0.73428	 0.73428
 0.73001	 0.73001
 0.72639	 0.72639
 0.59290	 0.59290
 0.00797	 0.00797
 0.00403	 0.00403
 0.00436	 0.00436
 0.00468	 0.00468
 0.00436	 0.00436
 0.00436	 0.00436
 0.00468	 0.00468
 0.00403	 0.00403
 0.00468	 0.00468
 0.01849	 0.01849
 0.71488	 0.71488
 0.71094	 0.71094
 0.70765	 0.70765
 0.70666	 0.70666
 0.70568	 0.70568
 0.62710	 0.62710
 0.01027	 0.01027
 0.00468	 0.00468
 0.00468	 0.00468
 0.00468	 0.00468
 0.00403	 0.00403
 0.00468	 0.00468
 0.00468	 0.00468
 0.00436	 0.00436
 0.00436	 0.00436
 0.01126	 0.01126
 0.69384	 0.69384
 0.69976	 0.69976
 0.70009	 0.70009
 0.69976	 0.69976
 0.70042	 0.70042
 0.66787	 0.66787
 0.01192	 0.01192
 0.00403	 0.00403
 0.00436	 0.00436
 0.00468	 0.00468
 0.00436	 0.00436
 0.00436	 0.00436
 0.00468	 0.00468
 0.00403	 0.00403
 0.00436	 0.00436
 0.00863	 0.00863
 0.68727	 0.68727
 0.69713	 0.69713
 0.69285	 0.69285
 0.69285	 0.69285
 0.69220	 0.69220
 0.68694	 0.68694
 0.02408	 0.02408
 0.00403	 0.00403
 0.00436	 0.00436
 0.00468	 0.00468
 0.00468	 0.00468
 0.00436	 0.00436
 0.00501	 0.00501
 0.00436	 0.00436
 0.00403	 0.00403
 0.00600	 0.00600
 0.68003	 0.68003
 0.68595	 0.68595
 0.68463	 0.68463
 0.68431	 0.68431
 0.68398	 0.68398
 0.67148	 0.67148
 0.02112	 0.02112
 0.00436	 0.00436
 0.00436	 0.00436
 0.00403	 0.00403
 0.00403	 0.00403
 0.00468	 0.00468
 0.00468	 0.00468
 0.00436	 0.00436
 0.00403	 0.00403
 0.00501	 0.00501
 0.64091	 0.64091
 0.67378	 0.67378
 0.67181	 0.67181
 0.67181	 0.67181
 0.67083	 0.67083
 0.68135	 0.68135
 0.02047	 0.02047
 0.00436	 0.00436
 0.00468	 0.00468
 0.00436	 0.00436
 0.00436	 0.00436
 0.00436	 0.00436
 0.00436	 0.00436
 0.00501	 0.00501
 0.00468	 0.00468
 0.00468	 0.00468
 0.63005	 0.63005
 0.65504	 0.65504
 0.65307	 0.65307
 0.65340	 0.65340
 0.65406	 0.65406
 0.65603	 0.65603
 0.03724	 0.03724
 0.00468	 0.00468
 0.00468	 0.00468
 0.00436	 0.00436
 0.00468	 0.00468
 0.00403	 0.00403
 0.00436	 0.00436
 0.00468	 0.00468
 0.00403	 0.00403
 0.00468	 0.00468
 0.60770	 0.60770
 0.63532	 0.63532
 0.63597	 0.63597
 0.63301	 0.63301
 0.63170	 0.63170
 0.63400	 0.63400
 0.02967	 0.02967
 0.00436	 0.00436
 0.00436	 0.00436
 0.00468	 0.00468
 0.00436	 0.00436
 0.00468	 0.00468
 0.00436	 0.00436
 0.00468	 0.00468
 0.00436	 0.00436
 0.00436	 0.00436
 0.59816	 0.59816
 0.61822	 0.61822
 0.61526	 0.61526
 0.61329	 0.61329
 0.61164	 0.61164
 0.61329	 0.61329
 0.01488	 0.01488
 0.00370	 0.00370
 0.00436	 0.00436
 0.00436	 0.00436
 0.00403	 0.00403
 0.00468	 0.00468
 0.00436	 0.00436
 0.00403	 0.00403
 0.00436	 0.00436
 0.00403	 0.00403
 0.53996	 0.53996
 0.60605	 0.60605
 0.60835	 0.60835
 0.60934	 0.60934
 0.61066	 0.61066
 0.61230	 0.61230
 0.05532	 0.05532
 0.00534	 0.00534
 0.00468	 0.00468
 0.00436	 0.00436
 0.00436	 0.00436
 0.00403	 0.00403
 0.00436	 0.00436
 0.00403	 0.00403
 0.00436	 0.00436
 0.00468	 0.00468
 0.55805	 0.55805
 0.63564	 0.63564
 0.63663	 0.63663
 0.63663	 0.63663
 0.63762	 0.63762
 0.63795	 0.63795
 0.07932	 0.07932
 0.00436	 0.00436
 0.00468	 0.00468
 0.00436	 0.00436
 0.00436	 0.00436
 0.00436	 0.00436
 0.00468	 0.00468
 0.00468	 0.00468
 0.00501	 0.00501
 0.00468	 0.00468
 0.57120	 0.57120
 0.66556	 0.66556
 0.66688	 0.66688
 0.66820	 0.66820
 0.67148	 0.67148
 0.67510	 0.67510
 0.11713	 0.11713
 0.00468	 0.00468
 0.00468	 0.00468
 0.00468	 0.00468
 0.00468	 0.00468
 0.00436	 0.00436
 0.00403	 0.00403
 0.00436	 0.00436
 0.00436	 0.00436
 0.00403	 0.00403
 0.58139	 0.58139
 0.70107	 0.70107
 0.70239	 0.70239
 0.70403	 0.70403
 0.70666	 0.70666
 0.70864	 0.70864
 0.19473	 0.19473
 0.00501	 0.00501
 0.00468	 0.00468
 0.00403	 0.00403
 0.00436	 0.00436
 0.00501	 0.00501
 0.00436	 0.00436
 0.00468	 0.00468
 0.00468	 0.00468
 0.00403	 0.00403
 0.54851	 0.54851
 0.72278	 0.72278
 0.72376	 0.72376
 0.72606	 0.72606
 0.72771	 0.72771
 0.73034	 0.73034
 0.20591	 0.20591
 0.00468	 0.00468
 0.00436	 0.00436
 0.00468	 0.00468
 0.00403	 0.00403
 0.00468	 0.00468
 0.00436	 0.00436
 0.00436	 0.00436
 0.00436	 0.00436
 0.00436	 0.00436
 0.27660	 0.27660
 0.75894	 0.75894
 0.76124	 0.76124
 0.76420	 0.76420
 0.76716	 0.76716
 0.76914	 0.76914
 0.20032	 0.20032
 0.00501	 0.00501
 0.00436	 0.00436
 0.00370	 0.00370
 0.00403	 0.00403
 0.00436	 0.00436
 0.00436	 0.00436
 0.00501	 0.00501
 0.00436	 0.00436
 0.00468	 0.00468
 0.32263	 0.32263
 0.78492	 0.78492
 0.78426	 0.78426
 0.78459	 0.78459
 0.78492	 0.78492
 0.78459	 0.78459
 0.25490	 0.25490
 0.00501	 0.00501
 0.00436	 0.00436
 0.00436	 0.00436
 0.00468	 0.00468
 0.00468	 0.00468
 0.00468	 0.00468
 0.00436	 0.00436
 0.00468	 0.00468
 0.00436	 0.00436
 0.38412	 0.38412
 0.78459	 0.78459
 0.78558	 0.78558
 0.78919	 0.78919
 0.78821	 0.78821
 0.78985	 0.78985
 0.24898	 0.24898
 0.00534	 0.00534
 0.00436	 0.00436
 0.00436	 0.00436
 0.00436	 0.00436
 0.00501	 0.00501
 0.00436	 0.00436
 0.00403	 0.00403
 0.00370	 0.00370
 0.00436	 0.00436
 0.24832	 0.24832
 0.80300	 0.80300
 0.80432	 0.80432
 0.80366	 0.80366
 0.80596	 0.80596
 0.80497	 0.80497
 0.12568	 0.12568
 0.00468	 0.00468
 0.00436	 0.00436
 0.00468	 0.00468
 0.00403	 0.00403
 0.00436	 0.00436
 0.00501	 0.00501
 0.00436	 0.00436
 0.00501	 0.00501
 0.00436	 0.00436
 0.14837	 0.14837
 0.81911	 0.81911
 0.81813	 0.81813
 0.81944	 0.81944
 0.82109	 0.82109
 0.82404	 0.82404
 0.40154	 0.40154
 0.00534	 0.00534
 0.00468	 0.00468
 0.00436	 0.00436
 0.00403	 0.00403
 0.00436	 0.00436
 0.00436	 0.00436
 0.00436	 0.00436
 0.00403	 0.00403
 0.00403	 0.00403
 0.14377	 0.14377
 0.83457	 0.83457
 0.83457	 0.83457
 0.83851	 0.83851
 0.83851	 0.83851
 0.83917	 0.83917
 0.47618	 0.47618
 0.00600	 0.00600
 0.00436	 0.00436
 0.00436	 0.00436
 0.00370	 0.00370
 0.00436	 0.00436
 0.00436	 0.00436
 0.00436	 0.00436
 0.00436	 0.00436
 0.00436	 0.00436
 0.12272	 0.12272
 0.84706	 0.84706
 0.85035	 0.85035
 0.84969	 0.84969
 0.85166	 0.85166
 0.85528	 0.85528
 0.56298	 0.56298
 0.00633	 0.00633
 0.00468	 0.00468
 0.00436	 0.00436
 0.00468	 0.00468
 0.00468	 0.00468
 0.00468	 0.00468
 0.00468	 0.00468
 0.00468	 0.00468
 0.00468	 0.00468
 0.10201	 0.10201
 0.86547	 0.86547
 0.86481	 0.86481
 0.86481	 0.86481
 0.86646	 0.86646
 0.86481	 0.86481
 0.67115	 0.67115
 0.00929	 0.00929
 0.00436	 0.00436
 0.00436	 0.00436
 0.00436	 0.00436
 0.00468	 0.00468
 0.00436	 0.00436
 0.00403	 0.00403
 0.00468	 0.00468
 0.00468	 0.00468
 0.07242	 0.07242
 0.85923	 0.85923
 0.85988	 0.85988
 0.85890	 0.85890
 0.85857	 0.85857
 0.85528	 0.85528
 0.69877	 0.69877
 0.00830	 0.00830
 0.00436	 0.00436
 0.00436	 0.00436
 0.00468	 0.00468
 0.00436	 0.00436
 0.00468	 0.00468
 0.00436	 0.00436
 0.00403	 0.00403
 0.00468	 0.00468
 0.01192	 0.01192
 0.84706	 0.84706
 0.85199	 0.85199
 0.84838	 0.84838
 0.84739	 0.84739
 0.84805	 0.84805
 0.74743	 0.74743
 0.00797	 0.00797
 0.00468	 0.00468
 0.00468	 0.00468
 0.00436	 0.00436
 0.00436	 0.00436
 0.00468	 0.00468
 0.00501	 0.00501
 0.00370	 0.00370
 0.00403	 0.00403
 0.01323	 0.01323
 0.82273	 0.82273
 0.82700	 0.82700
 0.82503	 0.82503
 0.82240	 0.82240
 0.82076	 0.82076
 0.75171	 0.75171
 0.01356	 0.01356
 0.00468	 0.00468
 0.00468	 0.00468
 0.00403	 0.00403
 0.00436	 0.00436
 0.00436	 0.00436
 0.00436	 0.00436
 0.00501	 0.00501
 0.00403	 0.00403
 0.01323	 0.01323
 0.77637	 0.77637
 0.78229	 0.78229
 0.77966	 0.77966
 0.77604	 0.77604
 0.77144	 0.77144
 0.68529	 0.68529
 0.01126	 0.01126
 0.00436	 0.00436
 0.00468	 0.00468
 0.00436	 0.00436
 0.00436	 0.00436
 0.00468	 0.00468
 0.00501	 0.00501
 0.00337	 0.00337
 0.00436	 0.00436
 0.00764	 0.00764
 0.73067	 0.73067
 0.73987	 0.73987
 0.73724	 0.73724
 0.73395	 0.73395
 0.72968	 0.72968
 0.63400	 0.63400
 0.00731	 0.00731
 0.00501	 0.00501
 0.00468	 0.00468
 0.00436	 0.00436
 0.00436	 0.00436
 0.00436	 0.00436
 0.00436	 0.00436
 0.00468	 0.00468
 0.00468	 0.00468
 0.00534	 0.00534
 0.67937	 0.67937
 0.69351	 0.69351
 0.69285	 0.69285
 0.69088	 0.69088
 0.68792	 0.68792
 0.68332	 0.68332
 0.01784	 0.01784
 0.00403	 0.00403
 0.00436	 0.00436
 0.00468	 0.00468
 0.00436	 0.00436
 0.00468	 0.00468
 0.00468	 0.00468
 0.00468	 0.00468
 0.00436	 0.00436
 0.00534	 0.00534
 0.66622	 0.66622
 0.68529	 0.68529
 0.68661	 0.68661
 0.68924	 0.68924
 0.69187	 0.69187
 0.69680	 0.69680
 0.02638	 0.02638
 0.00534	 0.00534
 0.00436	 0.00436
 0.00468	 0.00468
 0.00436	 0.00436
 0.00403	 0.00403
 0.00403	 0.00403
 0.00436	 0.00436
 0.00468	 0.00468
 0.00468	 0.00468
 0.69844	 0.69844
 0.72541	 0.72541
 0.72869	 0.72869
 0.73231	 0.73231
 0.73461	 0.73461
 0.73724	 0.73724
 0.03197	 0.03197
 0.00436	 0.00436
 0.00403	 0.00403
 0.00403	 0.00403
 0.00403	 0.00403
 0.00436	 0.00436
 0.00468	 0.00468
 0.00468	 0.00468
 0.00370	 0.00370
 0.00468	 0.00468
 0.74053	 0.74053
 0.77736	 0.77736
 0.77867	 0.77867
 0.78064	 0.78064
 0.78130	 0.78130
 0.78327	 0.78327
 0.07538	 0.07538
 0.00468	 0.00468
 0.00436	 0.00436
 0.00436	 0.00436
 0.00501	 0.00501
 0.00436	 0.00436
 0.00468	 0.00468
 0.00403	 0.00403
 0.00403	 0.00403
 0.00468	 0.00468
 0.74711	 0.74711
 0.79577	 0.79577
 0.79577	 0.79577
 0.79774	 0.79774
 0.79971	 0.79971
 0.80103	 0.80103
 0.06321	 0.06321
 0.00501	 0.00501
 0.00436	 0.00436
 0.00468	 0.00468
 0.00468	 0.00468
 0.00337	 0.00337
 0.00436	 0.00436
 0.00403	 0.00403
 0.00436	 0.00436
 0.00468	 0.00468
 0.65110	 0.65110
 0.80991	 0.80991
 0.80958	 0.80958
 0.81122	 0.81122
 0.81188	 0.81188
 0.81221	 0.81221
 0.05762	 0.05762
 0.00436	 0.00436
 0.00436	 0.00436
 0.00436	 0.00436
 0.00436	 0.00436
 0.00468	 0.00468
 0.00468	 0.00468
 0.00501	 0.00501
 0.00501	 0.00501
 0.00436	 0.00436
 0.68431	 0.68431
 0.81352	 0.81352
 0.81287	 0.81287
 0.81122	 0.81122
 0.81155	 0.81155
 0.81023	 0.81023
 0.10530	 0.10530
 0.00501	 0.00501
 0.00436	 0.00436
 0.00468	 0.00468
 0.00436	 0.00436
 0.00468	 0.00468
 0.00403	 0.00403
 0.00403	 0.00403
 0.00403	 0.00403
 0.00436	 0.00436
 0.68135	 0.68135
 0.79708	 0.79708
 0.79708	 0.79708
 0.79610	 0.79610
 0.79708	 0.79708
 0.79807	 0.79807
 0.08853	 0.08853
 0.00468	 0.00468
 0.00436	 0.00436
 0.00403	 0.00403
 0.00436	 0.00436
 0.00468	 0.00468
 0.00403	 0.00403
 0.00501	 0.00501
 0.00436	 0.00436
 0.00436	 0.00436
 0.59948	 0.59948
 0.79807	 0.79807
 0.79577	 0.79577
 0.79610	 0.79610
 0.79347	 0.79347
 0.79248	 0.79248
 0.03724	 0.03724
 0.00436	 0.00436
 0.00403	 0.00403
 0.00468	 0.00468
 0.00468	 0.00468
 0.00436	 0.00436
 0.00468	 0.00468
 0.00403	 0.00403
 0.00436	 0.00436
 0.00436	 0.00436
 0.41765	 0.41765
 0.78229	 0.78229
 0.78163	 0.78163
 0.78130	 0.78130
 0.77966	 0.77966
 0.77801	 0.77801
 0.16481	 0.16481
 0.00436	 0.00436
 0.00501	 0.00501
 0.00468	 0.00468
 0.00403	 0.00403
 0.00403	 0.00403
 0.00436	 0.00436
 0.00436	 0.00436
 0.00534	 0.00534
 0.00468	 0.00468
 0.40384	 0.40384
 0.76124	 0.76124
 0.76059	 0.76059
 0.75960	 0.75960
 0.75763	 0.75763
 0.75697	 0.75697
 0.21774	 0.21774
 0.00534	 0.00534
 0.00468	 0.00468
 0.00436	 0.00436
 0.00436	 0.00436
 0.00468	 0.00468
 0.00436	 0.00436
 0.00436	 0.00436
 0.00468	 0.00468
 0.00501	 0.00501
 0.33447	 0.33447
 0.75434	 0.75434
 0.75565	 0.75565
 0.75565	 0.75565
 0.75565	 0.75565
 0.75829	 0.75829
 0.29205	 0.29205
 0.00534	 0.00534
 0.00468	 0.00468
 0.00436	 0.00436
 0.00403	 0.00403
 0.00436	 0.00436
 0.00436	 0.00436
 0.00403	 0.00403
 0.00436	 0.00436
 0.00468	 0.00468
 0.30849	 0.30849
 0.76848	 0.76848
 0.76848	 0.76848
 0.76946	 0.76946
 0.77111	 0.77111
 0.77242	 0.77242
 0.40253	 0.40253
 0.00600	 0.00600
 0.00403	 0.00403
 0.00403	 0.00403
 0.00403	 0.00403
 0.00403	 0.00403
 0.00436	 0.00436
 0.00436	 0.00436
 0.00468	 0.00468
 0.00468	 0.00468
 0.24208	 0.24208
 0.77045	 0.77045
 0.76749	 0.76749
 0.76815	 0.76815
 0.76683	 0.76683
 0.76683	 0.76683
 0.45579	 0.45579
 0.00633	 0.00633
 0.00436	 0.00436
 0.00436	 0.00436
 0.00468	 0.00468
 0.00436	 0.00436
 0.00468	 0.00468
 0.00403	 0.00403
 0.00403	 0.00403
 0.00436	 0.00436
 0.06946	 0.06946
 0.76322	 0.76322
 0.76322	 0.76322
 0.76420	 0.76420
 0.76420	 0.76420
 0.76322	 0.76322
 0.42324	 0.42324
 0.00600	 0.00600
 0.00403	 0.00403
 0.00468	 0.00468
 0.00468	 0.00468
 0.00436	 0.00436
 0.00403	 0.00403
 0.00468	 0.00468
 0.00468	 0.00468
 0.00403	 0.00403
 0.07439	 0.07439
 0.75927	 0.75927
 0.75763	 0.75763
 0.75500	 0.75500
 0.75302	 0.75302
 0.75072	 0.75072
 0.48275	 0.48275
 0.00731	 0.00731
 0.00436	 0.00436
 0.00468	 0.00468
 0.00468	 0.00468
 0.00436	 0.00436
 0.00468	 0.00468
 0.00468	 0.00468
 0.00468	 0.00468
 0.00468	 0.00468
 0.08590	 0.08590
 0.74053	 0.74053
 0.73921	 0.73921
 0.73724	 0.73724
 0.73987	 0.73987
 0.74086	 0.74086
 0.47388	 0.47388
 0.00666	 0.00666
 0.00436	 0.00436
 0.00468	 0.00468
 0.00403	 0.00403
 0.00436	 0.00436
 0.00468	 0.00468
 0.00436	 0.00436
 0.00468	 0.00468
 0.00468	 0.00468
 0.04578	 0.04578
 0.73034	 0.73034
 0.73067	 0.73067
 0.73001	 0.73001
 0.73264	 0.73264
 0.73132	 0.73132
 0.34762	 0.34762
 0.00567	 0.00567
 0.00403	 0.00403
 0.00468	 0.00468
 0.00468	 0.00468
 0.00501	 0.00501
 0.00468	 0.00468
 0.00436	 0.00436
 0.00468	 0.00468
 0.00436	 0.00436
 0.01488	 0.01488
 0.71751	 0.71751
 0.71916	 0.71916
 0.71850	 0.71850
 0.71916	 0.71916
 0.72179	 0.72179
 0.60309	 0.60309
 0.00797	 0.00797
 0.00468	 0.00468
 0.00501	 0.00501
 0.00436	 0.00436
 0.00436	 0.00436
 0.00370	 0.00370
 0.00403	 0.00403
 0.00403	 0.00403
 0.00403	 0.00403
 0.01488	 0.01488
 0.73527	 0.73527
 0.73757	 0.73757
 0.73921	 0.73921
 0.74119	 0.74119
 0.74119	 0.74119
 0.66359	 0.66359
 0.01093	 0.01093
 0.00436	 0.00436
 0.00468	 0.00468
 0.00436	 0.00436
 0.00403	 0.00403
 0.00436	 0.00436
 0.00403	 0.00403
 0.00501	 0.00501
 0.00468	 0.00468
 0.01126	 0.01126
 0.75829	 0.75829
 0.76914	 0.76914
 0.77078	 0.77078
 0.77374	 0.77374
 0.77472	 0.77472
 0.73626	 0.73626
 0.01258	 0.01258
 0.00436	 0.00436
 0.00436	 0.00436
 0.00436	 0.00436
 0.00436	 0.00436
 0.00468	 0.00468
 0.00534	 0.00534
 0.00468	 0.00468
 0.00436	 0.00436
 0.00896	 0.00896
 0.79610	 0.79610
 0.80826	 0.80826
 0.80925	 0.80925
 0.81023	 0.81023
 0.81089	 0.81089
 0.80333	 0.80333
 0.02507	 0.02507
 0.00468	 0.00468
 0.00436	 0.00436
 0.00436	 0.00436
 0.00436	 0.00436
 0.00403	 0.00403
 0.00436	 0.00436
 0.00501	 0.00501
 0.00468	 0.00468
 0.00731	 0.00731
 0.80399	 0.80399
 0.81385	 0.81385
 0.81352	 0.81352
 0.81385	 0.81385
 0.81385	 0.81385
 0.79314	 0.79314
 0.01948	 0.01948
 0.00468	 0.00468
 0.00436	 0.00436
 0.00436	 0.00436
 0.00436	 0.00436
 0.00468	 0.00468
 0.00403	 0.00403
 0.00436	 0.00436
 0.00468	 0.00468
 0.00436	 0.00436
 0.77801	 0.77801
 0.81582	 0.81582
 0.81418	 0.81418
 0.81582	 0.81582
 0.81648	 0.81648
 0.83029	 0.83029
 0.02014	 0.02014
 0.00468	 0.00468
 0.00436	 0.00436
 0.00436	 0.00436
 0.00403	 0.00403
 0.00468	 0.00468
 0.00501	 0.00501
 0.00436	 0.00436
 0.00370	 0.00370
 0.00534	 0.00534
 0.77604	 0.77604
 0.80760	 0.80760
 0.80596	 0.80596
 0.80629	 0.80629
 0.80629	 0.80629
 0.81122	 0.81122
 0.03756	 0.03756
 0.00468	 0.00468
 0.00403	 0.00403
 0.00436	 0.00436
 0.00370	 0.00370
 0.00436	 0.00436
 0.00403	 0.00403
 0.00436	 0.00436
 0.00436	 0.00436
 0.00501	 0.00501
 0.75302	 0.75302
 0.78294	 0.78294
 0.77999	 0.77999
 0.77801	 0.77801
 0.77637	 0.77637
 0.77867	 0.77867
 0.02967	 0.02967
 0.00468	 0.00468
 0.00436	 0.00436
 0.00436	 0.00436
 0.00468	 0.00468
 0.00468	 0.00468
 0.00436	 0.00436
 0.00436	 0.00436
 0.00436	 0.00436
 0.00436	 0.00436
 0.73395	 0.73395
 0.75598	 0.75598
 0.75500	 0.75500
 0.75302	 0.75302
 0.75237	 0.75237
 0.75796	 0.75796
 0.01586	 0.01586
 0.00534	 0.00534
 0.00436	 0.00436
 0.00370	 0.00370
 0.00468	 0.00468
 0.00436	 0.00436
 0.00436	 0.00436
 0.00436	 0.00436
 0.00403	 0.00403
 0.00468	 0.00468
 0.65340	 0.65340
 0.73297	 0.73297
 0.73165	 0.73165
 0.72935	 0.72935
 0.72672	 0.72672
 0.72376	 0.72376
 0.05795	 0.05795
 0.00436	 0.00436
 0.00468	 0.00468
 0.00403	 0.00403
 0.00468	 0.00468
 0.00436	 0.00436
 0.00468	 0.00468
 0.00403	 0.00403
 0.00436	 0.00436
 0.00534	 0.00534
 0.62611	 0.62611
 0.71390	 0.71390
 0.71357	 0.71357
 0.71357	 0.71357
 0.71357	 0.71357
 0.71390	 0.71390
 0.08688	 0.08688
 0.00501	 0.00501
 0.00436	 0.00436
 0.00403	 0.00403
 0.00370	 0.00370
 0.00468	 0.00468
 0.00403	 0.00403
 0.00436	 0.00436
 0.00403	 0.00403
 0.00436	 0.00436
 0.61164	 0.61164
 0.72343	 0.72343
 0.72442	 0.72442
 0.72672	 0.72672
 0.72869	 0.72869
 0.73001	 0.73001
 0.12206	 0.12206
 0.00436	 0.00436
 0.00436	 0.00436
 0.00436	 0.00436
 0.00436	 0.00436
 0.00403	 0.00403
 0.00468	 0.00468
 0.00468	 0.00468
 0.00501	 0.00501
 0.00468	 0.00468
 0.60276	 0.60276
 0.74875	 0.74875
 0.74711	 0.74711
 0.74809	 0.74809
 0.74974	 0.74974
 0.75237	 0.75237
 0.21840	 0.21840
 0.00534	 0.00534
 0.00468	 0.00468
 0.00403	 0.00403
 0.00436	 0.00436
 0.00436	 0.00436
 0.00436	 0.00436
 0.00436	 0.00436
 0.00436	 0.00436
 0.00403	 0.00403
 0.53273	 0.53273
 0.75631	 0.75631
 0.75565	 0.75565
 0.75631	 0.75631
 0.75763	 0.75763
 0.76026	 0.76026
 0.23386	 0.23386
 0.00534	 0.00534
 0.00468	 0.00468
 0.00468	 0.00468
 0.00436	 0.00436
 0.00436	 0.00436
 0.00436	 0.00436
 0.00436	 0.00436
 0.00501	 0.00501
 0.00436	 0.00436
 0.23155	 0.23155
 0.76519	 0.76519
 0.76420	 0.76420
 0.76453	 0.76453
 0.76026	 0.76026
 0.75960	 0.75960
 0.20821	 0.20821
 0.00468	 0.00468
 0.00436	 0.00436
 0.00403	 0.00403
 0.00436	 0.00436
 0.00436	 0.00436
 0.00436	 0.00436
 0.00436	 0.00436
 0.00468	 0.00468
 0.00468	 0.00468
 0.24734	 0.24734
 0.76190	 0.76190
 0.76157	 0.76157
 0.76092	 0.76092
 0.76190	 0.76190
 0.76322	 0.76322
 0.28613	 0.28613
 0.00567	 0.00567
 0.00468	 0.00468
 0.00501	 0.00501
 0.00468	 0.00468
 0.00436	 0.00436
 0.00403	 0.00403
 0.00403	 0.00403
 0.00403	 0.00403
 0.00436	 0.00436
 0.28285	 0.28285
 0.76157	 0.76157
 0.75960	 0.75960
 0.75927	 0.75927
 0.75927	 0.75927
 0.75927	 0.75927
 0.28942	 0.28942
 0.00468	 0.00468
 0.00468	 0.00468
 0.00403	 0.00403
 0.00501	 0.00501
 0.00436	 0.00436
 0.00468	 0.00468
 0.00436	 0.00436
 0.00436	 0.00436
 0.00436	 0.00436
 0.17336	 0.17336
 0.76026	 0.76026
 0.75861	 0.75861
 0.75829	 0.75829
 0.75730	 0.75730
 0.75697	 0.75697
 0.13949	 0.13949
 0.00468	 0.00468
 0.00468	 0.00468
 0.00436	 0.00436
 0.00468	 0.00468
 0.00403	 0.00403
 0.00468	 0.00468
 0.00403	 0.00403
 0.00436	 0.00436
 0.00403	 0.00403
 0.09017	 0.09017
 0.75894	 0.75894
 0.75829	 0.75829
 0.75861	 0.75861
 0.75993	 0.75993
 0.75993	 0.75993
 0.42817	 0.42817
 0.00567	 0.00567
 0.00468	 0.00468
 0.00436	 0.00436
 0.00436	 0.00436
 0.00370	 0.00370
 0.00436	 0.00436
 0.00403	 0.00403
 0.00468	 0.00468
 0.00468	 0.00468
 0.08392	 0.08392
 0.77078	 0.77078
 0.77209	 0.77209
 0.77472	 0.77472
 0.77275	 0.77275
 0.77209	 0.77209
 0.51498	 0.51498
 0.00699	 0.00699
 0.00436	 0.00436
 0.00403	 0.00403
 0.00436	 0.00436
 0.00403	 0.00403
 0.00403	 0.00403
 0.00468	 0.00468
 0.00436	 0.00436
 0.00403	 0.00403
 0.06354	 0.06354
 0.78229	 0.78229
 0.78294	 0.78294
 0.78393	 0.78393
 0.78656	 0.78656
 0.78656	 0.78656
 0.59586	 0.59586
 0.00731	 0.00731
 0.00436	 0.00436
 0.00403	 0.00403
 0.00436	 0.00436
 0.00436	 0.00436
 0.00403	 0.00403
 0.00403	 0.00403
 0.00403	 0.00403
 0.00436	 0.00436
 0.05039	 0.05039
 0.80103	 0.80103
 0.80136	 0.80136
 0.80267	 0.80267
 0.80695	 0.80695
 0.80695	 0.80695
 0.69614	 0.69614
 0.01093	 0.01093
 0.00436	 0.00436
 0.00436	 0.00436
 0.00403	 0.00403
 0.00403	 0.00403
 0.00436	 0.00436
 0.00436	 0.00436
 0.00468	 0.00468
 0.00468	 0.00468
 0.03460	 0.03460
 0.81352	 0.81352
 0.81550	 0.81550
 0.81550	 0.81550
 0.81385	 0.81385
 0.81550	 0.81550
 0.72968	 0.72968
 0.01060	 0.01060
 0.00436	 0.00436
 0.00436	 0.00436
 0.00468	 0.00468
 0.00436	 0.00436
 0.00403	 0.00403
 0.00436	 0.00436
 0.00370	 0.00370
 0.00468	 0.00468
 0.00699	 0.00699
 0.79971	 0.79971
 0.81188	 0.81188
 0.81287	 0.81287
 0.81319	 0.81319
 0.81319	 0.81319
 0.76881	 0.76881
 0.01060	 0.01060
 0.00468	 0.00468
 0.00403	 0.00403
 0.00436	 0.00436
 0.00468	 0.00468
 0.00468	 0.00468
 0.00468	 0.00468
 0.00403	 0.00403
 0.00501	 0.00501
 0.00830	 0.00830
 0.79445	 0.79445
 0.80234	 0.80234
 0.80037	 0.80037
 0.79873	 0.79873
 0.79610	 0.79610
 0.76585	 0.76585
 0.01685	 0.01685
 0.00436	 0.00436
 0.00403	 0.00403
 0.00403	 0.00403
 0.00468	 0.00468
 0.00501	 0.00501
 0.00468	 0.00468
 0.00436	 0.00436
 0.00436	 0.00436
 0.00731	 0.00731
 0.76387	 0.76387
 0.77374	 0.77374
 0.77407	 0.77407
 0.77341	 0.77341
 0.77177	 0.77177
 0.72836	 0.72836
 0.01488	 0.01488
 0.00436	 0.00436
 0.00436	 0.00436
 0.00403	 0.00403
 0.00436	 0.00436
 0.00403	 0.00403
 0.00370	 0.00370
 0.00468	 0.00468
 0.00403	 0.00403
 0.00534	 0.00534
 0.73757	 0.73757
 0.74908	 0.74908
 0.74612	 0.74612
 0.74448	 0.74448
 0.74185	 0.74185
 0.68727	 0.68727
 0.00764	 0.00764
 0.00403	 0.00403
 0.00436	 0.00436
 0.00468	 0.00468
 0.00403	 0.00403
 0.00436	 0.00436
 0.00436	 0.00436
 0.00468	 0.00468
 0.00436	 0.00436
 0.00534	 0.00534
 0.70338	 0.70338
 0.72869	 0.72869
 0.72902	 0.72902
 0.73132	 0.73132
 0.73231	 0.73231
 0.73198	 0.73198
 0.02343	 0.02343
 0.00436	 0.00436
 0.00403	 0.00403
 0.00436	 0.00436
 0.00436	 0.00436
 0.00436	 0.00436
 0.00436	 0.00436
 0.00436	 0.00436
 0.00468	 0.00468
 0.00501	 0.00501
 0.72771	 0.72771
 0.76157	 0.76157
 0.76289	 0.76289
 0.76618	 0.76618
 0.76848	 0.76848
 0.77472	 0.77472
 0.03460	 0.03460
 0.00468	 0.00468
 0.00436	 0.00436
 0.00468	 0.00468
 0.00468	 0.00468
 0.00403	 0.00403
 0.00468	 0.00468
 0.00436	 0.00436
 0.00501	 0.00501
 0.00501	 0.00501
 0.77177	 0.77177
 0.80596	 0.80596
 0.80859	 0.80859
 0.80826	 0.80826
 0.80859	 0.80859
 0.81023	 0.81023
 0.04282	 0.04282
 0.00403	 0.00403
 0.00436	 0.00436
 0.00468	 0.00468
 0.00403	 0.00403
 0.00534	 0.00534
 0.00468	 0.00468
 0.00436	 0.00436
 0.00436	 0.00436
 0.00468	 0.00468
 0.78064	 0.78064
 0.82404	 0.82404
 0.82536	 0.82536
 0.82667	 0.82667
 0.82667	 0.82667
 0.82667	 0.82667
 0.09379	 0.09379
 0.00436	 0.00436
 0.00403	 0.00403
 0.00436	 0.00436
 0.00370	 0.00370
 0.00436	 0.00436
 0.00403	 0.00403
 0.00436	 0.00436
 0.00468	 0.00468
 0.00468	 0.00468
 0.76881	 0.76881
 0.83259	 0.83259
 0.83621	 0.83621
 0.83555	 0.83555
 0.83621	 0.83621
 0.83752	 0.83752
 0.08360	 0.08360
 0.00403	 0.00403
 0.00403	 0.00403
 0.00436	 0.00436
 0.00468	 0.00468
 0.00436	 0.00436
 0.00436	 0.00436
 0.00468	 0.00468
 0.00403	 0.00403
 0.00436	 0.00436
 0.60046	 0.60046
 0.83522	 0.83522
 0.83752	 0.83752
 0.83522	 0.83522
 0.83720	 0.83720
 0.83785	 0.83785
 0.08097	 0.08097
 0.00436	 0.00436
 0.00403	 0.00403
 0.00468	 0.00468
 0.00436	 0.00436
 0.00468	 0.00468
 0.00436	 0.00436
 0.00403	 0.00403
 0.00403	 0.00403
 0.00468	 0.00468
 0.63137	 0.63137
 0.82898	 0.82898
 0.82799	 0.82799
 0.82602	 0.82602
 0.82536	 0.82536
 0.82240	 0.82240
 0.13423	 0.13423
 0.00534	 0.00534
 0.00436	 0.00436
 0.00468	 0.00468
 0.00501	 0.00501
 0.00436	 0.00436
 0.00468	 0.00468
 0.00436	 0.00436
 0.00534	 0.00534
 0.00468	 0.00468
 0.63663	 0.63663
 0.80300	 0.80300
 0.79807	 0.79807
 0.80103	 0.80103
 0.80004	 0.80004
 0.79511	 0.79511
 0.12272	 0.12272
 0.00534	 0.00534
 0.00403	 0.00403
 0.00468	 0.00468
 0.00436	 0.00436
 0.00501	 0.00501
 0.00436	 0.00436
 0.00403	 0.00403
 0.00436	 0.00436
 0.00436	 0.00436
 0.48538	 0.48538
 0.77703	 0.77703
 0.77407	 0.77407
 0.77177	 0.77177
 0.76914	 0.76914
 0.76716	 0.76716
 0.04874	 0.04874
 0.00436	 0.00436
 0.00436	 0.00436
 0.00436	 0.00436
 0.00468	 0.00468
 0.00403	 0.00403
 0.00436	 0.00436
 0.00436	 0.00436
 0.00436	 0.00436
 0.00468	 0.00468
 0.31211	 0.31211
 0.74217	 0.74217
 0.73954	 0.73954
 0.73889	 0.73889
 0.73658	 0.73658
 0.73658	 0.73658
 0.19736	 0.19736
 0.00468	 0.00468
 0.00436	 0.00436
 0.00403	 0.00403
 0.00403	 0.00403
 0.00468	 0.00468
 0.00436	 0.00436
 0.00436	 0.00436
 0.00436	 0.00436
 0.00436	 0.00436
 0.29764	 0.29764
 0.72212	 0.72212
 0.72146	 0.72146
 0.72212	 0.72212
 0.72146	 0.72146
 0.72080	 0.72080
 0.26246	 0.26246
 0.00534	 0.00534
 0.00436	 0.00436
 0.00436	 0.00436
 0.00403	 0.00403
 0.00436	 0.00436
 0.00468	 0.00468
 0.00436	 0.00436
 0.00436	 0.00436
 0.00468	 0.00468
 0.24306	 0.24306
 0.72508	 0.72508
 0.72672	 0.72672
 0.72606	 0.72606
 0.72771	 0.72771
 0.72836	 0.72836
 0.33480	 0.33480
 0.00534	 0.00534
 0.00403	 0.00403
 0.00436	 0.00436
 0.00436	 0.00436
 0.00501	 0.00501
 0.00468	 0.00468
 0.00403	 0.00403
 0.00468	 0.00468
 0.00468	 0.00468
 0.22169	 0.22169
 0.72804	 0.72804
 0.72606	 0.72606
 0.72508	 0.72508
 0.72475	 0.72475
 0.72606	 0.72606
 0.43672	 0.43672
 0.00633	 0.00633
 0.00436	 0.00436
 0.00436	 0.00436
 0.00501	 0.00501
 0.00436	 0.00436
 0.00468	 0.00468
 0.00403	 0.00403
 0.00403	 0.00403
 0.00436	 0.00436
 0.16875	 0.16875
 0.72573	 0.72573
 0.72836	 0.72836
 0.72836	 0.72836
 0.72902	 0.72902
 0.73034	 0.73034
 0.49985	 0.49985
 0.00633	 0.00633
 0.00436	 0.00436
 0.00468	 0.00468
 0.00403	 0.00403
 0.00403	 0.00403
 0.00468	 0.00468
 0.00403	 0.00403
 0.00403	 0.00403
 0.00501	 0.00501
 0.04282	 0.04282
 0.72310	 0.72310
 0.72179	 0.72179
 0.71982	 0.71982
 0.71686	 0.71686
 0.71686	 0.71686
 0.46829	 0.46829
 0.00567	 0.00567
 0.00403	 0.00403
 0.00403	 0.00403
 0.00370	 0.00370
 0.00501	 0.00501
 0.00436	 0.00436
 0.00468	 0.00468
 0.00436	 0.00436
 0.00403	 0.00403
 0.04381	 0.04381
 0.70239	 0.70239
 0.70009	 0.70009
 0.70009	 0.70009
 0.69910	 0.69910
 0.69812	 0.69812
 0.51300	 0.51300
 0.00797	 0.00797
 0.00534	 0.00534
 0.00403	 0.00403
 0.00501	 0.00501
 0.00370	 0.00370
 0.00436	 0.00436
 0.00436	 0.00436
 0.00403	 0.00403
 0.00436	 0.00436
 0.05433	 0.05433
 0.68924	 0.68924
 0.69121	 0.69121
 0.69022	 0.69022
 0.69022	 0.69022
 0.68727	 0.68727
 0.48703	 0.48703
 0.00666	 0.00666
 0.00436	 0.00436
 0.00436	 0.00436
 0.00436	 0.00436
 0.00436	 0.00436
 0.00468	 0.00468
 0.00468	 0.00468
 0.00436	 0.00436
 0.00468	 0.00468
 0.02967	 0.02967
 0.67937	 0.67937
 0.67806	 0.67806
 0.67477	 0.67477
 0.67609	 0.67609
 0.67280	 0.67280
 0.40056	 0.40056
 0.00567	 0.00567
 0.00436	 0.00436
 0.00468	 0.00468
 0.00468	 0.00468
 0.00436	 0.00436
 0.00468	 0.00468
 0.00403	 0.00403
 0.00436	 0.00436
 0.00436	 0.00436
 0.00929	 0.00929
 0.65800	 0.65800
 0.66261	 0.66261
 0.66195	 0.66195
 0.66359	 0.66359
 0.66228	 0.66228
 0.59454	 0.59454
 0.00929	 0.00929
 0.00403	 0.00403
 0.00468	 0.00468
 0.00436	 0.00436
 0.00370	 0.00370
 0.00403	 0.00403
 0.00468	 0.00468
 0.00436	 0.00436
 0.00370	 0.00370
 0.01027	 0.01027
 0.67905	 0.67905
 0.68168	 0.68168
 0.67970	 0.67970
 0.68003	 0.68003
 0.68135	 0.68135
 0.64058	 0.64058
 0.01225	 0.01225
 0.00403	 0.00403
 0.00468	 0.00468
 0.00436	 0.00436
 0.00468	 0.00468
 0.00436	 0.00436
 0.00436	 0.00436
 0.00468	 0.00468
 0.00403	 0.00403
 0.00699	 0.00699
 0.69779	 0.69779
 0.70962	 0.70962
 0.71456	 0.71456
 0.71653	 0.71653
 0.72014	 0.72014
 0.70634	 0.70634
 0.01488	 0.01488
 0.00436	 0.00436
 0.00468	 0.00468
 0.00403	 0.00403
 0.00436	 0.00436
 0.00403	 0.00403
 0.00436	 0.00436
 0.00468	 0.00468
 0.00436	 0.00436
 0.00699	 0.00699
 0.73757	 0.73757
 0.75204	 0.75204
 0.75368	 0.75368
 0.75500	 0.75500
 0.75565	 0.75565
 0.75631	 0.75631
 0.03000	 0.03000
 0.00436	 0.00436
 0.00436	 0.00436
 0.00403	 0.00403
 0.00436	 0.00436
 0.00468	 0.00468
 0.00468	 0.00468
 0.00468	 0.00468
 0.00468	 0.00468
 0.00567	 0.00567
 0.75927	 0.75927
 0.77078	 0.77078
 0.77012	 0.77012
 0.77045	 0.77045
 0.77308	 0.77308
 0.76289	 0.76289
 0.02441	 0.02441
 0.00436	 0.00436
 0.00403	 0.00403
 0.00468	 0.00468
 0.00436	 0.00436
 0.00468	 0.00468
 0.00468	 0.00468
 0.00436	 0.00436
 0.00436	 0.00436
 0.00468	 0.00468
 0.73856	 0.73856
 0.78656	 0.78656
 0.78853	 0.78853
 0.79084	 0.79084
 0.79314	 0.79314
 0.80892	 0.80892
 0.02507	 0.02507
 0.00501	 0.00501
 0.00436	 0.00436
 0.00468	 0.00468
 0.00501	 0.00501
 0.00403	 0.00403
 0.00468	 0.00468
 0.00436	 0.00436
 0.00501	 0.00501
 0.00468	 0.00468
 0.76946	 0.76946
 0.80859	 0.80859
 0.80760	 0.80760
 0.81023	 0.81023
 0.81089	 0.81089
 0.81648	 0.81648
 0.04546	 0.04546
 0.00436	 0.00436
 0.00436	 0.00436
 0.00501	 0.00501
 0.00468	 0.00468
 0.00436	 0.00436
 0.00468	 0.00468
 0.00468	 0.00468
 0.00436	 0.00436
 0.00436	 0.00436
 0.77341	 0.77341
 0.81780	 0.81780
 0.81714	 0.81714
 0.81582	 0.81582
 0.81451	 0.81451
 0.82174	 0.82174
 0.03691	 0.03691
 0.00436	 0.00436
 0.00403	 0.00403
 0.00403	 0.00403
 0.00403	 0.00403
 0.00370	 0.00370
 0.00436	 0.00436
 0.00436	 0.00436
 0.00436	 0.00436
 0.00436	 0.00436
 0.78130	 0.78130
 0.82109	 0.82109
 0.82306	 0.82306
 0.82109	 0.82109
 0.82207	 0.82207
 0.82273	 0.82273
 0.01816	 0.01816
 0.00436	 0.00436
 0.00403	 0.00403
 0.00436	 0.00436
 0.00436	 0.00436
 0.00468	 0.00468
 0.00468	 0.00468
 0.00436	 0.00436
 0.00468	 0.00468
 0.00436	 0.00436
 0.70666	 0.70666
 0.81944	 0.81944
 0.82076	 0.82076
 0.82109	 0.82109
 0.82174	 0.82174
 0.82372	 0.82372
 0.07439	 0.07439
 0.00468	 0.00468
 0.00468	 0.00468
 0.00468	 0.00468
 0.00468	 0.00468
 0.00436	 0.00436
 0.00403	 0.00403
 0.00436	 0.00436
 0.00403	 0.00403
 0.00468	 0.00468
 0.69943	 0.69943
 0.82273	 0.82273
 0.82404	 0.82404
 0.82503	 0.82503
 0.82339	 0.82339
 0.82240	 0.82240
 0.10826	 0.10826
 0.00403	 0.00403
 0.00436	 0.00436
 0.00436	 0.00436
 0.00436	 0.00436
 0.00403	 0.00403
 0.00403	 0.00403
 0.00468	 0.00468
 0.00403	 0.00403
 0.00468	 0.00468
 0.66392	 0.66392
 0.82930	 0.82930
 0.82996	 0.82996
 0.82930	 0.82930
 0.82898	 0.82898
 0.82733	 0.82733
 0.15297	 0.15297
 0.00534	 0.00534
 0.00468	 0.00468
 0.00436	 0.00436
 0.00468	 0.00468
 0.00468	 0.00468
 0.00436	 0.00436
 0.00436	 0.00436
 0.00468	 0.00468
 0.00436	 0.00436
 0.62710	 0.62710
 0.82865	 0.82865
 0.82865	 0.82865
 0.82963	 0.82963
 0.82996	 0.82996
 0.83128	 0.83128
 0.26279	 0.26279
 0.00534	 0.00534
 0.00403	 0.00403
 0.00403	 0.00403
 0.00403	 0.00403
 0.00468	 0.00468
 0.00403	 0.00403
 0.00468	 0.00468
 0.00436	 0.00436
 0.00436	 0.00436
 0.52681	 0.52681
 0.82602	 0.82602
 0.82503	 0.82503
 0.82207	 0.82207
 0.81944	 0.81944
 0.81977	 0.81977
 0.28515	 0.28515
 0.00468	 0.00468
 0.00436	 0.00436
 0.00403	 0.00403
 0.00403	 0.00403
 0.00436	 0.00436
 0.00468	 0.00468
 0.00436	 0.00436
 0.00436	 0.00436
 0.00436	 0.00436
 0.19078	 0.19078
 0.80300	 0.80300
 0.80070	 0.80070
 0.79971	 0.79971
 0.79971	 0.79971
 0.79774	 0.79774
 0.26115	 0.26115
 0.00534	 0.00534
 0.00468	 0.00468
 0.00468	 0.00468
 0.00501	 0.00501
 0.00468	 0.00468
 0.00403	 0.00403
 0.00436	 0.00436
 0.00436	 0.00436
 0.00468	 0.00468
 0.19144	 0.19144
 0.77209	 0.77209
 0.77275	 0.77275
 0.77242	 0.77242
 0.77012	 0.77012
 0.76585	 0.76585
 0.32921	 0.32921
 0.00633	 0.00633
 0.00436	 0.00436
 0.00436	 0.00436
 0.00436	 0.00436
 0.00468	 0.00468
 0.00403	 0.00403
 0.00501	 0.00501
 0.00436	 0.00436
 0.00403	 0.00403
 0.21084	 0.21084
 0.74119	 0.74119
 0.73889	 0.73889
 0.73527	 0.73527
 0.73395	 0.73395
 0.73330	 0.73330
 0.32690	 0.32690
 0.00534	 0.00534
 0.00468	 0.00468
 0.00468	 0.00468
 0.00534	 0.00534
 0.00468	 0.00468
 0.00403	 0.00403
 0.00436	 0.00436
 0.00468	 0.00468
 0.00436	 0.00436
 0.11615	 0.11615
 0.71225	 0.71225
 0.71225	 0.71225
 0.71127	 0.71127
 0.70929	 0.70929
 0.70831	 0.70831
 0.16514	 0.16514
 0.00501	 0.00501
 0.00436	 0.00436
 0.00436	 0.00436
 0.00436	 0.00436
 0.00403	 0.00403
 0.00436	 0.00436
 0.00436	 0.00436
 0.00436	 0.00436
 0.00468	 0.00468
 0.06091	 0.06091
 0.70239	 0.70239
 0.70305	 0.70305
 0.70140	 0.70140
 0.70239	 0.70239
 0.70239	 0.70239
 0.44231	 0.44231
 0.00633	 0.00633
 0.00436	 0.00436
 0.00501	 0.00501
 0.00436	 0.00436
 0.00436	 0.00436
 0.00403	 0.00403
 0.00436	 0.00436
 0.00436	 0.00436
 0.00436	 0.00436
 0.05861	 0.05861
 0.72771	 0.72771
 0.73067	 0.73067
 0.73395	 0.73395
 0.73724	 0.73724
 0.74250	 0.74250
 0.53569	 0.53569
 0.00699	 0.00699
 0.00436	 0.00436
 0.00403	 0.00403
 0.00436	 0.00436
 0.00436	 0.00436
 0.00403	 0.00403
 0.00403	 0.00403
 0.00436	 0.00436
 0.00436	 0.00436
 0.04874	 0.04874
 0.77834	 0.77834
 0.78130	 0.78130
 0.78294	 0.78294
 0.78426	 0.78426
 0.78656	 0.78656
 0.63236	 0.63236
 0.00731	 0.00731
 0.00436	 0.00436
 0.00403	 0.00403
 0.00403	 0.00403
 0.00436	 0.00436
 0.00468	 0.00468
 0.00436	 0.00436
 0.00468	 0.00468
 0.00468	 0.00468
 0.04217	 0.04217
 0.80958	 0.80958
 0.81385	 0.81385
 0.81451	 0.81451
 0.81484	 0.81484
 0.81714	 0.81714
 0.72343	 0.72343
 0.01258	 0.01258
 0.00370	 0.00370
 0.00403	 0.00403
 0.00468	 0.00468
 0.00403	 0.00403
 0.00403	 0.00403
 0.00403	 0.00403
 0.00436	 0.00436
 0.00436	 0.00436
 0.03197	 0.03197
 0.82700	 0.82700
 0.83292	 0.83292
 0.83391	 0.83391
 0.83654	 0.83654
 0.83818	 0.83818
 0.74448	 0.74448
 0.01060	 0.01060
 0.00436	 0.00436
 0.00403	 0.00403
 0.00436	 0.00436
 0.00403	 0.00403
 0.00337	 0.00337
 0.00468	 0.00468
 0.00468	 0.00468
 0.00436	 0.00436
 0.00699	 0.00699
 0.84410	 0.84410
 0.85232	 0.85232
 0.85068	 0.85068
 0.85232	 0.85232
 0.85232	 0.85232
 0.80596	 0.80596
 0.01060	 0.01060
 0.00436	 0.00436
 0.00436	 0.00436
 0.00436	 0.00436
 0.00468	 0.00468
 0.00468	 0.00468
 0.00436	 0.00436
 0.00436	 0.00436
 0.00370	 0.00370
 0.00863	 0.00863
 0.83785	 0.83785
 0.84542	 0.84542
 0.84443	 0.84443
 0.84213	 0.84213
 0.83818	 0.83818
 0.80563	 0.80563
 0.01652	 0.01652
 0.00468	 0.00468
 0.00436	 0.00436
 0.00403	 0.00403
 0.00436	 0.00436
 0.00436	 0.00436
 0.00403	 0.00403
 0.00403	 0.00403
 0.00468	 0.00468
 0.00896	 0.00896
 0.81977	 0.81977
 0.82832	 0.82832
 0.82832	 0.82832
 0.82503	 0.82503
 0.82076	 0.82076
 0.76289	 0.76289
 0.01356	 0.01356
 0.00403	 0.00403
 0.00468	 0.00468
 0.00436	 0.00436
 0.00436	 0.00436
 0.00403	 0.00403
 0.00468	 0.00468
 0.00468	 0.00468
 0.00468	 0.00468
 0.00699	 0.00699
 0.80826	 0.80826
 0.81155	 0.81155
 0.81056	 0.81056
 0.80859	 0.80859
 0.80662	 0.80662
 0.76453	 0.76453
 0.00830	 0.00830
 0.00468	 0.00468
 0.00436	 0.00436
 0.00436	 0.00436
 0.00436	 0.00436
 0.00468	 0.00468
 0.00403	 0.00403
 0.00403	 0.00403
 0.00436	 0.00436
 0.00501	 0.00501
 0.75861	 0.75861
 0.77867	 0.77867
 0.77637	 0.77637
 0.77670	 0.77670
 0.77505	 0.77505
 0.77736	 0.77736
 0.02244	 0.02244
 0.00436	 0.00436
 0.00403	 0.00403
 0.00403	 0.00403
 0.00436	 0.00436
 0.00403	 0.00403
 0.00468	 0.00468
 0.00436	 0.00436
 0.00370	 0.00370
 0.00436	 0.00436
 0.73921	 0.73921
 0.76190	 0.76190
 0.76124	 0.76124
 0.75927	 0.75927
 0.76355	 0.76355
 0.76223	 0.76223
 0.03428	 0.03428
 0.00436	 0.00436
 0.00436	 0.00436
 0.00468	 0.00468
 0.00370	 0.00370
 0.00468	 0.00468
 0.00468	 0.00468
 0.00468	 0.00468
 0.00436	 0.00436
 0.00501	 0.00501
 0.73626	 0.73626
 0.76749	 0.76749
 0.76979	 0.76979
 0.77144	 0.77144
 0.77308	 0.77308
 0.77440	 0.77440
 0.04644	 0.04644
 0.00468	 0.00468
 0.00436	 0.00436
 0.00436	 0.00436
 0.00436	 0.00436
 0.00436	 0.00436
 0.00403	 0.00403
 0.00403	 0.00403
 0.00468	 0.00468
 0.00468	 0.00468
 0.72179	 0.72179
 0.76683	 0.76683
 0.76355	 0.76355
 0.76289	 0.76289
 0.76289	 0.76289
 0.76059	 0.76059
 0.09740	 0.09740
 0.00468	 0.00468
 0.00436	 0.00436
 0.00436	 0.00436
 0.00436	 0.00436
 0.00370	 0.00370
 0.00501	 0.00501
 0.00468	 0.00468
 0.00468	 0.00468
 0.00436	 0.00436
 0.69614	 0.69614
 0.75861	 0.75861
 0.75598	 0.75598
 0.75401	 0.75401
 0.75270	 0.75270
 0.75335	 0.75335
 0.09773	 0.09773
 0.00534	 0.00534
 0.00436	 0.00436
 0.00468	 0.00468
 0.00501	 0.00501
 0.00436	 0.00436
 0.00403	 0.00403
 0.00403	 0.00403
 0.00403	 0.00403
 0.00436	 0.00436
 0.48670	 0.48670
 0.74776	 0.74776
 0.74711	 0.74711
 0.74678	 0.74678
 0.74612	 0.74612
 0.74448	 0.74448
 0.09050	 0.09050
 0.00436	 0.00436
 0.00436	 0.00436
 0.00436	 0.00436
 0.00468	 0.00468
 0.00403	 0.00403
 0.00436	 0.00436
 0.00436	 0.00436
 0.00436	 0.00436
 0.00468	 0.00468
 0.50084	 0.50084
 0.73001	 0.73001
 0.72738	 0.72738
 0.72541	 0.72541
 0.72245	 0.72245
 0.72080	 0.72080
 0.14311	 0.14311
 0.00534	 0.00534
 0.00468	 0.00468
 0.00403	 0.00403
 0.00436	 0.00436
 0.00436	 0.00436
 0.00436	 0.00436
 0.00436	 0.00436
 0.00468	 0.00468
 0.00468	 0.00468
 0.50577	 0.50577
 0.71324	 0.71324
 0.71291	 0.71291
 0.71324	 0.71324
 0.71160	 0.71160
 0.70929	 0.70929
 0.14113	 0.14113
 0.00501	 0.00501
 0.00403	 0.00403
 0.00436	 0.00436
 0.00403	 0.00403
 0.00436	 0.00436
 0.00468	 0.00468
 0.00436	 0.00436
 0.00468	 0.00468
 0.00436	 0.00436
 0.36307	 0.36307
 0.69483	 0.69483
 0.69450	 0.69450
 0.69220	 0.69220
 0.68924	 0.68924
 0.68595	 0.68595
 0.05400	 0.05400
 0.00501	 0.00501
 0.00468	 0.00468
 0.00436	 0.00436
 0.00468	 0.00468
 0.00436	 0.00436
 0.00436	 0.00436
 0.00468	 0.00468
 0.00436	 0.00436
 0.00436	 0.00436
 0.21281	 0.21281
 0.67346	 0.67346
 0.67214	 0.67214
 0.67181	 0.67181
 0.67181	 0.67181
 0.67181	 0.67181
 0.22366	 0.22366
 0.00567	 0.00567
 0.00468	 0.00468
 0.00468	 0.00468
 0.00436	 0.00436
 0.00403	 0.00403
 0.00403	 0.00403
 0.00436	 0.00436
 0.00468	 0.00468
 0.00534	 0.00534
 0.21051	 0.21051
 0.68365	 0.68365
 0.68529	 0.68529
 0.68858	 0.68858
 0.68825	 0.68825
 0.68858	 0.68858
 0.29633	 0.29633
 0.00534	 0.00534
 0.00436	 0.00436
 0.00403	 0.00403
 0.00436	 0.00436
 0.00436	 0.00436
 0.00436	 0.00436
 0.00468	 0.00468
 0.00436	 0.00436
 0.00436	 0.00436
 0.17960	 0.17960
 0.71456	 0.71456
 0.71982	 0.71982
 0.72310	 0.72310
 0.72541	 0.72541
 0.72804	 0.72804
 0.38346	 0.38346
 0.00567	 0.00567
 0.00468	 0.00468
 0.00436	 0.00436
 0.00436	 0.00436
 0.00436	 0.00436
 0.00436	 0.00436
 0.00436	 0.00436
 0.00403	 0.00403
 0.00468	 0.00468
 0.17007	 0.17007
 0.76716	 0.76716
 0.77078	 0.77078
 0.77472	 0.77472
 0.77801	 0.77801
 0.77966	 0.77966
 0.51695	 0.51695
 0.00764	 0.00764
 0.00436	 0.00436
 0.00468	 0.00468
 0.00436	 0.00436
 0.00436	 0.00436
 0.00436	 0.00436
 0.00403	 0.00403
 0.00436	 0.00436
 0.00436	 0.00436
 0.13949	 0.13949
 0.80037	 0.80037
 0.80004	 0.80004
 0.80169	 0.80169
 0.80530	 0.80530
 0.80662	 0.80662
 0.58600	 0.58600
 0.00699	 0.00699
 0.00436	 0.00436
 0.00468	 0.00468
 0.00436	 0.00436
 0.00436	 0.00436
 0.00436	 0.00436
 0.00436	 0.00436
 0.00468	 0.00468
 0.00403	 0.00403
 0.03395	 0.03395
 0.82010	 0.82010
 0.82076	 0.82076
 0.82306	 0.82306
 0.82372	 0.82372
 0.82635	 0.82635
 0.58008	 0.58008
 0.00633	 0.00633
 0.00436	 0.00436
 0.00501	 0.00501
 0.00468	 0.00468
 0.00436	 0.00436
 0.00436	 0.00436
 0.00436	 0.00436
 0.00436	 0.00436
 0.00436	 0.00436
 0.03987	 0.03987
 0.83983	 0.83983
 0.83851	 0.83851
 0.83654	 0.83654
 0.83720	 0.83720
 0.83391	 0.83391
 0.63959	 0.63959
 0.00830	 0.00830
 0.00403	 0.00403
 0.00468	 0.00468
 0.00436	 0.00436
 0.00403	 0.00403
 0.00436	 0.00436
 0.00436	 0.00436
 0.00468	 0.00468
 0.00436	 0.00436
 0.04940	 0.04940
 0.83128	 0.83128
 0.82865	 0.82865
 0.82865	 0.82865
 0.82865	 0.82865
 0.82996	 0.82996
 0.61362	 0.61362
 0.00797	 0.00797
 0.00436	 0.00436
 0.00436	 0.00436
 0.00403	 0.00403
 0.00403	 0.00403
 0.00403	 0.00403
 0.00468	 0.00468
 0.00468	 0.00468
 0.00403	 0.00403
 0.02836	 0.02836
 0.83128	 0.83128
 0.82898	 0.82898
 0.83424	 0.83424
 0.83128	 0.83128
 0.83194	 0.83194
 0.54391	 0.54391
 0.00567	 0.00567
 0.00436	 0.00436
 0.00436	 0.00436
 0.00436	 0.00436
 0.00403	 0.00403
 0.00501	 0.00501
 0.00436	 0.00436
 0.00468	 0.00468
 0.00468	 0.00468
 0.00896	 0.00896
 0.81911	 0.81911
 0.82733	 0.82733
 0.82503	 0.82503
 0.82109	 0.82109
 0.82010	 0.82010
 0.76026	 0.76026
 0.01159	 0.01159
 0.00468	 0.00468
 0.00501	 0.00501
 0.00403	 0.00403
 0.00501	 0.00501
 0.00436	 0.00436
 0.00403	 0.00403
 0.00436	 0.00436
 0.00403	 0.00403
 0.00797	 0.00797
 0.81517	 0.81517
 0.82109	 0.82109
 0.81944	 0.81944
 0.82273	 0.82273
 0.82141	 0.82141
 0.78788	 0.78788
 0.01553	 0.01553
 0.00436	 0.00436
 0.00403	 0.00403
 0.00403	 0.00403
 0.00403	 0.00403
 0.00468	 0.00468
 0.00468	 0.00468
 0.00436	 0.00436
 0.00468	 0.00468
 0.00633	 0.00633
 0.80300	 0.80300
 0.80925	 0.80925
 0.80958	 0.80958
 0.80728	 0.80728
 0.80465	 0.80465
 0.79708	 0.79708
 0.01784	 0.01784
 0.00436	 0.00436
 0.00468	 0.00468
 0.00436	 0.00436
 0.00436	 0.00436
 0.00436	 0.00436
 0.00468	 0.00468
 0.00436	 0.00436
 0.00501	 0.00501
 0.00534	 0.00534
 0.79314	 0.79314
 0.80793	 0.80793
 0.80760	 0.80760
 0.80826	 0.80826
 0.80859	 0.80859
 0.81023	 0.81023
 0.04052	 0.04052
 0.00436	 0.00436
 0.00468	 0.00468
 0.00436	 0.00436
 0.00468	 0.00468
 0.00436	 0.00436
 0.00436	 0.00436
 0.00436	 0.00436
 0.00403	 0.00403
 0.00501	 0.00501
 0.78327	 0.78327
 0.80333	 0.80333
 0.80629	 0.80629
 0.80925	 0.80925
 0.81089	 0.81089
 0.80497	 0.80497
 0.03428	 0.03428
 0.00370	 0.00370
 0.00370	 0.00370
 0.00403	 0.00403
 0.00468	 0.00468
 0.00436	 0.00436
 0.00468	 0.00468
 0.00436	 0.00436
 0.00436	 0.00436
 0.00436	 0.00436
 0.73297	 0.73297
 0.80136	 0.80136
 0.79971	 0.79971
 0.79807	 0.79807
 0.79708	 0.79708
 0.80760	 0.80760
 0.03526	 0.03526
 0.00436	 0.00436
 0.00436	 0.00436
 0.00468	 0.00468
 0.00436	 0.00436
 0.00436	 0.00436
 0.00436	 0.00436
 0.00436	 0.00436
 0.00403	 0.00403
 0.00436	 0.00436
 0.71949	 0.71949
 0.78064	 0.78064
 0.77933	 0.77933
 0.77801	 0.77801
 0.77670	 0.77670
 0.77440	 0.77440
 0.06913	 0.06913
 0.00501	 0.00501
 0.00403	 0.00403
 0.00436	 0.00436
 0.00436	 0.00436
 0.00436	 0.00436
 0.00468	 0.00468
 0.00436	 0.00436
 0.00501	 0.00501
 0.00468	 0.00468
 0.69088	 0.69088
 0.75796	 0.75796
 0.75598	 0.75598
 0.75598	 0.75598
 0.75829	 0.75829
 0.76026	 0.76026
 0.05368	 0.05368
 0.00436	 0.00436
 0.00468	 0.00468
 0.00436	 0.00436
 0.00436	 0.00436
 0.00436	 0.00436
 0.00468	 0.00468
 0.00436	 0.00436
 0.00501	 0.00501
 0.00403	 0.00403
 0.66293	 0.66293
 0.74152	 0.74152
 0.74020	 0.74020
 0.73889	 0.73889
 0.73691	 0.73691
 0.73658	 0.73658
 0.02507	 0.02507
 0.00436	 0.00436
 0.00436	 0.00436
 0.00403	 0.00403
 0.00436	 0.00436
 0.00436	 0.00436
 0.00403	 0.00403
 0.00403	 0.00403
 0.00468	 0.00468
 0.00403	 0.00403
 0.52221	 0.52221
 0.73626	 0.73626
 0.73757	 0.73757
 0.73790	 0.73790
 0.74020	 0.74020
 0.74119	 0.74119
 0.10497	 0.10497
 0.00468	 0.00468
 0.00436	 0.00436
 0.00403	 0.00403
 0.00468	 0.00468
 0.00436	 0.00436
 0.00436	 0.00436
 0.00468	 0.00468
 0.00403	 0.00403
 0.00436	 0.00436
 0.54029	 0.54029
 0.76848	 0.76848
 0.77144	 0.77144
 0.77604	 0.77604
 0.77768	 0.77768
 0.78130	 0.78130
 0.15462	 0.15462
 0.00501	 0.00501
 0.00468	 0.00468
 0.00436	 0.00436
 0.00468	 0.00468
 0.00436	 0.00436
 0.00403	 0.00403
 0.00436	 0.00436
 0.00436	 0.00436
 0.00468	 0.00468
 0.51498	 0.51498
 0.81747	 0.81747
 0.82076	 0.82076
 0.82437	 0.82437
 0.82799	 0.82799
 0.82963	 0.82963
 0.22136	 0.22136
 0.00468	 0.00468
 0.00436	 0.00436
 0.00436	 0.00436
 0.00436	 0.00436
 0.00403	 0.00403
 0.00436	 0.00436
 0.00403	 0.00403
 0.00436	 0.00436
 0.00403	 0.00403
 0.51103	 0.51103
 0.83654	 0.83654
 0.83654	 0.83654
 0.83654	 0.83654
 0.83752	 0.83752
 0.83654	 0.83654
 0.32559	 0.32559
 0.00534	 0.00534
 0.00468	 0.00468
 0.00436	 0.00436
 0.00468	 0.00468
 0.00436	 0.00436
 0.00403	 0.00403
 0.00403	 0.00403
 0.00403	 0.00403
 0.00403	 0.00403
 0.41995	 0.41995
 0.84114	 0.84114
 0.84377	 0.84377
 0.84246	 0.84246
 0.84673	 0.84673
 0.84640	 0.84640
 0.37162	 0.37162
 0.00567	 0.00567
 0.00370	 0.00370
 0.00403	 0.00403
 0.00436	 0.00436
 0.00370	 0.00370
 0.00337	 0.00337
 0.00403	 0.00403
 0.00468	 0.00468
 0.00436	 0.00436
 0.14344	 0.14344
 0.84443	 0.84443
 0.84377	 0.84377
 0.84542	 0.84542
 0.84673	 0.84673
 0.84706	 0.84706
 0.35156	 0.35156
 0.00534	 0.00534
 0.00403	 0.00403
 0.00436	 0.00436
 0.00403	 0.00403
 0.00436	 0.00436
 0.00436	 0.00436
 0.00468	 0.00468
 0.00468	 0.00468
 0.00436	 0.00436
 0.15133	 0.15133
 0.82996	 0.82996
 0.82602	 0.82602
 0.82372	 0.82372
 0.82437	 0.82437
 0.82273	 0.82273
 0.41469	 0.41469
 0.00600	 0.00600
 0.00468	 0.00468
 0.00436	 0.00436
 0.00468	 0.00468
 0.00436	 0.00436
 0.00468	 0.00468
 0.00436	 0.00436
 0.00436	 0.00436
 0.00403	 0.00403
 0.16908	 0.16908
 0.79643	 0.79643
 0.79906	 0.79906
 0.79807	 0.79807
 0.79511	 0.79511
 0.79445	 0.79445
 0.40713	 0.40713
 0.00633	 0.00633
 0.00468	 0.00468
 0.00403	 0.00403
 0.00436	 0.00436
 0.00403	 0.00403
 0.00436	 0.00436
 0.00436	 0.00436
 0.00468	 0.00468
 0.00436	 0.00436
 0.09149	 0.09149
 0.76486	 0.76486
 0.76322	 0.76322
 0.75861	 0.75861
 0.75598	 0.75598
 0.75204	 0.75204
 0.26147	 0.26147
 0.00534	 0.00534
 0.00468	 0.00468
 0.00468	 0.00468
 0.00468	 0.00468
 0.00436	 0.00436
 0.00468	 0.00468
 0.00436	 0.00436
 0.00468	 0.00468
 0.00403	 0.00403
 0.03395	 0.03395
 0.72245	 0.72245
 0.72113	 0.72113
 0.72113	 0.72113
 0.72014	 0.72014
 0.71916	 0.71916
 0.53273	 0.53273
 0.00731	 0.00731
 0.00468	 0.00468
 0.00468	 0.00468
 0.00436	 0.00436
 0.00403	 0.00403
 0.00436	 0.00436
 0.00436	 0.00436
 0.00436	 0.00436
 0.00468	 0.00468
 0.03099	 0.03099
 0.71028	 0.71028
 0.70864	 0.70864
 0.71061	 0.71061
 0.71061	 0.71061
 0.70897	 0.70897
 0.57909	 0.57909
 0.00797	 0.00797
 0.00370	 0.00370
 0.00436	 0.00436
 0.00468	 0.00468
 0.00436	 0.00436
 0.00436	 0.00436
 0.00436	 0.00436
 0.00436	 0.00436
 0.00468	 0.00468
 0.01981	 0.01981
 0.69943	 0.69943
 0.70042	 0.70042
 0.69844	 0.69844
 0.69844	 0.69844
 0.69943	 0.69943
 0.63104	 0.63104
 0.00995	 0.00995
 0.00436	 0.00436
 0.00436	 0.00436
 0.00534	 0.00534
 0.00403	 0.00403
 0.00468	 0.00468
 0.00436	 0.00436
 0.00468	 0.00468
 0.00403	 0.00403
 0.01422	 0.01422
 0.68957	 0.68957
 0.69549	 0.69549
 0.69647	 0.69647
 0.69713	 0.69713
 0.69746	 0.69746
 0.67576	 0.67576
 0.01816	 0.01816
 0.00436	 0.00436
 0.00436	 0.00436
 0.00403	 0.00403
 0.00468	 0.00468
 0.00534	 0.00534
 0.00436	 0.00436
 0.00436	 0.00436
 0.00468	 0.00468
 0.01060	 0.01060
 0.68792	 0.68792
 0.69417	 0.69417
 0.69088	 0.69088
 0.68924	 0.68924
 0.68858	 0.68858
 0.66556	 0.66556
 0.01586	 0.01586
 0.00436	 0.00436
 0.00468	 0.00468
 0.00468	 0.00468
 0.00468	 0.00468
 0.00436	 0.00436
 0.00468	 0.00468
 0.00436	 0.00436
 0.00468	 0.00468
 0.00436	 0.00436
 0.65767	 0.65767
 0.67872	 0.67872
 0.67905	 0.67905
 0.68069	 0.68069
 0.68168	 0.68168
 0.69055	 0.69055
 0.01586	 0.01586
 0.00436	 0.00436
 0.00436	 0.00436
 0.00436	 0.00436
 0.00370	 0.00370
 0.00403	 0.00403
 0.00370	 0.00370
 0.00370	 0.00370
 0.00403	 0.00403
 0.00468	 0.00468
 0.64847	 0.64847
 0.66293	 0.66293
 0.66195	 0.66195
 0.66063	 0.66063
 0.65866	 0.65866
 0.66129	 0.66129
 0.02704	 0.02704
 0.00436	 0.00436
 0.00403	 0.00403
 0.00501	 0.00501
 0.00403	 0.00403
 0.00468	 0.00468
 0.00436	 0.00436
 0.00436	 0.00436
 0.00403	 0.00403
 0.00534	 0.00534
 0.62348	 0.62348
 0.63926	 0.63926
 0.63827	 0.63827
 0.63827	 0.63827
 0.63762	 0.63762
 0.63926	 0.63926
 0.02211	 0.02211
 0.00436	 0.00436
 0.00436	 0.00436
 0.00436	 0.00436
 0.00436	 0.00436
 0.00370	 0.00370
 0.00403	 0.00403
 0.00436	 0.00436
 0.00436	 0.00436
 0.00436	 0.00436
 0.61098	 0.61098
 0.62611	 0.62611
 0.62710	 0.62710
 0.62644	 0.62644
 0.62381	 0.62381
 0.62644	 0.62644
 0.01159	 0.01159
 0.00403	 0.00403
 0.00436	 0.00436
 0.00370	 0.00370
 0.00436	 0.00436
 0.00436	 0.00436
 0.00436	 0.00436
 0.00468	 0.00468
 0.00436	 0.00436
 0.00468	 0.00468
 0.57613	 0.57613
 0.62085	 0.62085
 0.61822	 0.61822
 0.61822	 0.61822
 0.61690	 0.61690
 0.61493	 0.61493
 0.03987	 0.03987
 0.00468	 0.00468
 0.00436	 0.00436
 0.00468	 0.00468
 0.00468	 0.00468
 0.00436	 0.00436
 0.00436	 0.00436
 0.00436	 0.00436
 0.00436	 0.00436
 0.00436	 0.00436
 0.57876	 0.57876
 0.63071	 0.63071
 0.63597	 0.63597
 0.64156	 0.64156
 0.64321	 0.64321
 0.64255	 0.64255
 0.06157	 0.06157
 0.00501	 0.00501
 0.00436	 0.00436
 0.00403	 0.00403
 0.00436	 0.00436
 0.00436	 0.00436
 0.00468	 0.00468
 0.00403	 0.00403
 0.00436	 0.00436
 0.00403	 0.00403
 0.60572	 0.60572
 0.66425	 0.66425
 0.66688	 0.66688
 0.66688	 0.66688
 0.66754	 0.66754
 0.66984	 0.66984
 0.08787	 0.08787
 0.00468	 0.00468
 0.00403	 0.00403
 0.00436	 0.00436
 0.00468	 0.00468
 0.00370	 0.00370
 0.00436	 0.00436
 0.00468	 0.00468
 0.00468	 0.00468
 0.00370	 0.00370
 0.61296	 0.61296
 0.69220	 0.69220
 0.69351	 0.69351
 0.69647	 0.69647
 0.69680	 0.69680
 0.69877	 0.69877
 0.16053	 0.16053
 0.00501	 0.00501
 0.00468	 0.00468
 0.00403	 0.00403
 0.00436	 0.00436
 0.00436	 0.00436
 0.00436	 0.00436
 0.00403	 0.00403
 0.00403	 0.00403
 0.00436	 0.00436
 0.58337	 0.58337
 0.71488	 0.71488
 0.71982	 0.71982
 0.71949	 0.71949
 0.71982	 0.71982
 0.72146	 0.72146
 0.16974	 0.16974
 0.00501	 0.00501
 0.00436	 0.00436
 0.00468	 0.00468
 0.00403	 0.00403
 0.00468	 0.00468
 0.00436	 0.00436
 0.00468	 0.00468
 0.00534	 0.00534
 0.00468	 0.00468
 0.31737	 0.31737
 0.74053	 0.74053
 0.74283	 0.74283
 0.74217	 0.74217
 0.74480	 0.74480
 0.74579	 0.74579
 0.16382	 0.16382
 0.00534	 0.00534
 0.00468	 0.00468
 0.00468	 0.00468
 0.00436	 0.00436
 0.00403	 0.00403
 0.00436	 0.00436
 0.00403	 0.00403
 0.00370	 0.00370
 0.00436	 0.00436
 0.35156	 0.35156
 0.75533	 0.75533
 0.75598	 0.75598
 0.75796	 0.75796
 0.75993	 0.75993
 0.75960	 0.75960
 0.23188	 0.23188
 0.00534	 0.00534
 0.00403	 0.00403
 0.00436	 0.00436
 0.00436	 0.00436
 0.00370	 0.00370
 0.00436	 0.00436
 0.00370	 0.00370
 0.00436	 0.00436
 0.00501	 0.00501
 0.40056	 0.40056
 0.76092	 0.76092
 0.75927	 0.75927
 0.75993	 0.75993
 0.75894	 0.75894
 0.75960	 0.75960
 0.22859	 0.22859
 0.00468	 0.00468
 0.00436	 0.00436
 0.00436	 0.00436
 0.00468	 0.00468
 0.00436	 0.00436
 0.00436	 0.00436
 0.00436	 0.00436
 0.00370	 0.00370
 0.00436	 0.00436
 0.25391	 0.25391
 0.76289	 0.76289
 0.75960	 0.75960
 0.76059	 0.76059
 0.76289	 0.76289
 0.76420	 0.76420
 0.10793	 0.10793
 0.00436	 0.00436
 0.00436	 0.00436
 0.00468	 0.00468
 0.00436	 0.00436
 0.00403	 0.00403
 0.00436	 0.00436
 0.00436	 0.00436
 0.00436	 0.00436
 0.00370	 0.00370
 0.14475	 0.14475
 0.76618	 0.76618
 0.76914	 0.76914
 0.76979	 0.76979
 0.77209	 0.77209
 0.77144	 0.77144
 0.36866	 0.36866
 0.00534	 0.00534
 0.00436	 0.00436
 0.00501	 0.00501
 0.00436	 0.00436
 0.00436	 0.00436
 0.00436	 0.00436
 0.00468	 0.00468
 0.00468	 0.00468
 0.00436	 0.00436
 0.13423	 0.13423
 0.77604	 0.77604
 0.77999	 0.77999
 0.78262	 0.78262
 0.78393	 0.78393
 0.78952	 0.78952
 0.45678	 0.45678
 0.00666	 0.00666
 0.00501	 0.00501
 0.00468	 0.00468
 0.00468	 0.00468
 0.00468	 0.00468
 0.00436	 0.00436
 0.00403	 0.00403
 0.00436	 0.00436
 0.00436	 0.00436
 0.10793	 0.10793
 0.80629	 0.80629
 0.80991	 0.80991
 0.81188	 0.81188
 0.81319	 0.81319
 0.81550	 0.81550
 0.55608	 0.55608
 0.00633	 0.00633
 0.00468	 0.00468
 0.00436	 0.00436
 0.00370	 0.00370
 0.00501	 0.00501
 0.00403	 0.00403
 0.00436	 0.00436
 0.00403	 0.00403
 0.00403	 0.00403
 0.08853	 0.08853
 0.83752	 0.83752
 0.83818	 0.83818
 0.83950	 0.83950
 0.83917	 0.83917
 0.84016	 0.84016
 0.67674	 0.67674
 0.00929	 0.00929
 0.00468	 0.00468
 0.00403	 0.00403
 0.00468	 0.00468
 0.00501	 0.00501
 0.00468	 0.00468
 0.00436	 0.00436
 0.00370	 0.00370
 0.00468	 0.00468
 0.05894	 0.05894
 0.83884	 0.83884
 0.83555	 0.83555
 0.83095	 0.83095
 0.82898	 0.82898
 0.83391	 0.83391
 0.70634	 0.70634
 0.00896	 0.00896
 0.00436	 0.00436
 0.00468	 0.00468
 0.00403	 0.00403
 0.00436	 0.00436
 0.00403	 0.00403
 0.00403	 0.00403
 0.00436	 0.00436
 0.00436	 0.00436
 0.01027	 0.01027
 0.83588	 0.83588
 0.84805	 0.84805
 0.85166	 0.85166
 0.84936	 0.84936
 0.85068	 0.85068
 0.77111	 0.77111
 0.00830	 0.00830
 0.00403	 0.00403
 0.00436	 0.00436
 0.00436	 0.00436
 0.00436	 0.00436
 0.00436	 0.00436
 0.00501	 0.00501
 0.00403	 0.00403
 0.00468	 0.00468
 0.01126	 0.01126
 0.84048	 0.84048
 0.84443	 0.84443
 0.84180	 0.84180
 0.84311	 0.84311
 0.83983	 0.83983
 0.79116	 0.79116
 0.01521	 0.01521
 0.00436	 0.00436
 0.00436	 0.00436
 0.00534	 0.00534
 0.00468	 0.00468
 0.00436	 0.00436
 0.00436	 0.00436
 0.00468	 0.00468
 0.00436	 0.00436
 0.01060	 0.01060
 0.81615	 0.81615
 0.82207	 0.82207
 0.81944	 0.81944
 0.81813	 0.81813
 0.81615	 0.81615
 0.74711	 0.74711
 0.01258	 0.01258
 0.00436	 0.00436
 0.00468	 0.00468
 0.00436	 0.00436
 0.00468	 0.00468
 0.00468	 0.00468
 0.00436	 0.00436
 0.00468	 0.00468
 0.00468	 0.00468
 0.00731	 0.00731
 0.80004	 0.80004
 0.80826	 0.80826
 0.80760	 0.80760
 0.80760	 0.80760
 0.80399	 0.80399
 0.73395	 0.73395
 0.00797	 0.00797
 0.00468	 0.00468
 0.00468	 0.00468
 0.00468	 0.00468
 0.00468	 0.00468
 0.00468	 0.00468
 0.00436	 0.00436
 0.00370	 0.00370
 0.00468	 0.00468
 0.00468	 0.00468
 0.75697	 0.75697
 0.78262	 0.78262
 0.78163	 0.78163
 0.77966	 0.77966
 0.77966	 0.77966
 0.78196	 0.78196
 0.02277	 0.02277
 0.00468	 0.00468
 0.00436	 0.00436
 0.00403	 0.00403
 0.00436	 0.00436
 0.00403	 0.00403
 0.00468	 0.00468
 0.00403	 0.00403
 0.00370	 0.00370
 0.00534	 0.00534
 0.73790	 0.73790
 0.76355	 0.76355
 0.76223	 0.76223
 0.76157	 0.76157
 0.76026	 0.76026
 0.76289	 0.76289
 0.03329	 0.03329
 0.00436	 0.00436
 0.00436	 0.00436
 0.00468	 0.00468
 0.00436	 0.00436
 0.00468	 0.00468
 0.00436	 0.00436
 0.00436	 0.00436
 0.00468	 0.00468
 0.00468	 0.00468
 0.73658	 0.73658
 0.77177	 0.77177
 0.77571	 0.77571
 0.77768	 0.77768
 0.78130	 0.78130
 0.78492	 0.78492
 0.04348	 0.04348
 0.00468	 0.00468
 0.00468	 0.00468
 0.00468	 0.00468
 0.00468	 0.00468
 0.00403	 0.00403
 0.00403	 0.00403
 0.00403	 0.00403
 0.00436	 0.00436
 0.00436	 0.00436
 0.76190	 0.76190
 0.81155	 0.81155
 0.81287	 0.81287
 0.81648	 0.81648
 0.82076	 0.82076
 0.81944	 0.81944
 0.10595	 0.10595
 0.00468	 0.00468
 0.00436	 0.00436
 0.00370	 0.00370
 0.00436	 0.00436
 0.00436	 0.00436
 0.00436	 0.00436
 0.00436	 0.00436
 0.00468	 0.00468
 0.00468	 0.00468
 0.74250	 0.74250
 0.81648	 0.81648
 0.81484	 0.81484
 0.81418	 0.81418
 0.81287	 0.81287
 0.81714	 0.81714
 0.10036	 0.10036
 0.00436	 0.00436
 0.00468	 0.00468
 0.00436	 0.00436
 0.00436	 0.00436
 0.00403	 0.00403
 0.00403	 0.00403
 0.00436	 0.00436
 0.00370	 0.00370
 0.00403	 0.00403
 0.51004	 0.51004
 0.81254	 0.81254
 0.81385	 0.81385
 0.80991	 0.80991
 0.81122	 0.81122
 0.81155	 0.81155
 0.09247	 0.09247
 0.00436	 0.00436
 0.00436	 0.00436
 0.00403	 0.00403
 0.00403	 0.00403
 0.00468	 0.00468
 0.00436	 0.00436
 0.00436	 0.00436
 0.00403	 0.00403
 0.00436	 0.00436
 0.51399	 0.51399
 0.79314	 0.79314
 0.79084	 0.79084
 0.78821	 0.78821
 0.78821	 0.78821
 0.78623	 0.78623
 0.16053	 0.16053
 0.00468	 0.00468
 0.00403	 0.00403
 0.00468	 0.00468
 0.00436	 0.00436
 0.00468	 0.00468
 0.00436	 0.00436
 0.00403	 0.00403
 0.00436	 0.00436
 0.00370	 0.00370
 0.50347	 0.50347
 0.76092	 0.76092
 0.75960	 0.75960
 0.75894	 0.75894
 0.75927	 0.75927
 0.75829	 0.75829
 0.15560	 0.15560
 0.00534	 0.00534
 0.00436	 0.00436
 0.00436	 0.00436
 0.00436	 0.00436
 0.00468	 0.00468
 0.00436	 0.00436
 0.00468	 0.00468
 0.00468	 0.00468
 0.00468	 0.00468
 0.35518	 0.35518
 0.73593	 0.73593
 0.73560	 0.73560
 0.73494	 0.73494
 0.73461	 0.73461
 0.73264	 0.73264
 0.05894	 0.05894
 0.00403	 0.00403
 0.00403	 0.00403
 0.00436	 0.00436
 0.00436	 0.00436
 0.00436	 0.00436
 0.00436	 0.00436
 0.00436	 0.00436
 0.00468	 0.00468
 0.00436	 0.00436
 0.21347	 0.21347
 0.73297	 0.73297
 0.73264	 0.73264
 0.73165	 0.73165
 0.73165	 0.73165
 0.73395	 0.73395
 0.25062	 0.25062
 0.00534	 0.00534
 0.00403	 0.00403
 0.00468	 0.00468
 0.00436	 0.00436
 0.00436	 0.00436
 0.00468	 0.00468
 0.00436	 0.00436
 0.00468	 0.00468
 0.00436	 0.00436
 0.21051	 0.21051
 0.75500	 0.75500
 0.75861	 0.75861
 0.76190	 0.76190
 0.76519	 0.76519
 0.76651	 0.76651
 0.34466	 0.34466
 0.00534	 0.00534
 0.00436	 0.00436
 0.00436	 0.00436
 0.00436	 0.00436
 0.00403	 0.00403
 0.00436	 0.00436
 0.00468	 0.00468
 0.00468	 0.00468
 0.00468	 0.00468
 0.18191	 0.18191
 0.79182	 0.79182
 0.79248	 0.79248
 0.79347	 0.79347
 0.79347	 0.79347
 0.79577	 0.79577
 0.43442	 0.43442
 0.00534	 0.00534
 0.00436	 0.00436
 0.00403	 0.00403
 0.00468	 0.00468
 0.00468	 0.00468
 0.00436	 0.00436
 0.00436	 0.00436
 0.00403	 0.00403
 0.00468	 0.00468
 0.16777	 0.16777
 0.81155	 0.81155
 0.81254	 0.81254
 0.81385	 0.81385
 0.81451	 0.81451
 0.81878	 0.81878
 0.55016	 0.55016
 0.00731	 0.00731
 0.00468	 0.00468
 0.00468	 0.00468
 0.00468	 0.00468
 0.00436	 0.00436
 0.00403	 0.00403
 0.00436	 0.00436
 0.00403	 0.00403
 0.00436	 0.00436
 0.13193	 0.13193
 0.82832	 0.82832
 0.82930	 0.82930
 0.83062	 0.83062
 0.83161	 0.83161
 0.83391	 0.83391
 0.62085	 0.62085
 0.00699	 0.00699
 0.00403	 0.00403
 0.00468	 0.00468
 0.00436	 0.00436
 0.00436	 0.00436
 0.00436	 0.00436
 0.00403	 0.00403
 0.00468	 0.00468
 0.00436	 0.00436
 0.02934	 0.02934
 0.83950	 0.83950
 0.84180	 0.84180
 0.84213	 0.84213
 0.84180	 0.84180
 0.84246	 0.84246
 0.63860	 0.63860
 0.00666	 0.00666
 0.00436	 0.00436
 0.00403	 0.00403
 0.00436	 0.00436
 0.00468	 0.00468
 0.00403	 0.00403
 0.00403	 0.00403
 0.00403	 0.00403
 0.00403	 0.00403
 0.03428	 0.03428
 0.83752	 0.83752
 0.83522	 0.83522
 0.83950	 0.83950
 0.83917	 0.83917
 0.84048	 0.84048
 0.68003	 0.68003
 0.00962	 0.00962
 0.00468	 0.00468
 0.00436	 0.00436
 0.00436	 0.00436
 0.00468	 0.00468
 0.00403	 0.00403
 0.00436	 0.00436
 0.00436	 0.00436
 0.00436	 0.00436
 0.03888	 0.03888
 0.83391	 0.83391
 0.83424	 0.83424
 0.83128	 0.83128
 0.82963	 0.82963
 0.82766	 0.82766
 0.64551	 0.64551
 0.00863	 0.00863
 0.00468	 0.00468
 0.00436	 0.00436
 0.00468	 0.00468
 0.00403	 0.00403
 0.00534	 0.00534
 0.00468	 0.00468
 0.00403	 0.00403
 0.00337	 0.00337
 0.02080	 0.02080
 0.81385	 0.81385
 0.82174	 0.82174
 0.82141	 0.82141
 0.81944	 0.81944
 0.81287	 0.81287
 0.61953	 0.61953
 0.00666	 0.00666
 0.00468	 0.00468
 0.00403	 0.00403
 0.00468	 0.00468
 0.00403	 0.00403
 0.00436	 0.00436
 0.00436	 0.00436
 0.00468	 0.00468
 0.00468	 0.00468
 0.00699	 0.00699
 0.79281	 0.79281
 0.80234	 0.80234
 0.80333	 0.80333
 0.80234	 0.80234
 0.79840	 0.79840
 0.76946	 0.76946
 0.01290	 0.01290
 0.00468	 0.00468
 0.00468	 0.00468
 0.00403	 0.00403
 0.00501	 0.00501
 0.00436	 0.00436
 0.00436	 0.00436
 0.00534	 0.00534
 0.00468	 0.00468
 0.00699	 0.00699
 0.78919	 0.78919
 0.79873	 0.79873
 0.79675	 0.79675
 0.79873	 0.79873
 0.80136	 0.80136
 0.79018	 0.79018
 0.01915	 0.01915
 0.00468	 0.00468
 0.00468	 0.00468
 0.00436	 0.00436
 0.00403	 0.00403
 0.00468	 0.00468
 0.00436	 0.00436
 0.00403	 0.00403
 0.00436	 0.00436
 0.00600	 0.00600
 0.79018	 0.79018
 0.80037	 0.80037
 0.80333	 0.80333
 0.80497	 0.80497
 0.80432	 0.80432
 0.80793	 0.80793
 0.02375	 0.02375
 0.00370	 0.00370
 0.00436	 0.00436
 0.00436	 0.00436
 0.00436	 0.00436
 0.00436	 0.00436
 0.00436	 0.00436
 0.00436	 0.00436
 0.00436	 0.00436
 0.00534	 0.00534
 0.78656	 0.78656
 0.80497	 0.80497
 0.80563	 0.80563
 0.80399	 0.80399
 0.80333	 0.80333
 0.80793	 0.80793
 0.05203	 0.05203
 0.00436	 0.00436
 0.00403	 0.00403
 0.00436	 0.00436
 0.00436	 0.00436
 0.00436	 0.00436
 0.00403	 0.00403
 0.00436	 0.00436
 0.00403	 0.00403
 0.00468	 0.00468
 0.77111	 0.77111
 0.80333	 0.80333
 0.80399	 0.80399
 0.80267	 0.80267
 0.80267	 0.80267
 0.79708	 0.79708
 0.04973	 0.04973
 0.00468	 0.00468
 0.00436	 0.00436
 0.00436	 0.00436
 0.00370	 0.00370
 0.00436	 0.00436
 0.00403	 0.00403
 0.00468	 0.00468
 0.00436	 0.00436
 0.00468	 0.00468
 0.69121	 0.69121
 0.80136	 0.80136
 0.79971	 0.79971
 0.80070	 0.80070
 0.79873	 0.79873
 0.80267	 0.80267
 0.04973	 0.04973
 0.00468	 0.00468
 0.00436	 0.00436
 0.00468	 0.00468
 0.00403	 0.00403
 0.00436	 0.00436
 0.00468	 0.00468
 0.00436	 0.00436
 0.00501	 0.00501
 0.00436	 0.00436
 0.69154	 0.69154
 0.78821	 0.78821
 0.78656	 0.78656
 0.78525	 0.78525
 0.78558	 0.78558
 0.78525	 0.78525
 0.09214	 0.09214
 0.00501	 0.00501
 0.00468	 0.00468
 0.00468	 0.00468
 0.00370	 0.00370
 0.00370	 0.00370
 0.00403	 0.00403
 0.00403	 0.00403
 0.00436	 0.00436
 0.00436	 0.00436
 0.67740	 0.67740
 0.77604	 0.77604
 0.77670	 0.77670
 0.77472	 0.77472
 0.77275	 0.77275
 0.77209	 0.77209
 0.08129	 0.08129
 0.00436	 0.00436
 0.00403	 0.00403
 0.00403	 0.00403
 0.00436	 0.00436
 0.00468	 0.00468
 0.00436	 0.00436
 0.00468	 0.00468
 0.00436	 0.00436
 0.00403	 0.00403
 0.58830	 0.58830
 0.76059	 0.76059
 0.75730	 0.75730
 0.75434	 0.75434
 0.75237	 0.75237
 0.75401	 0.75401
 0.03592	 0.03592
 0.00468	 0.00468
 0.00436	 0.00436
 0.00468	 0.00468
 0.00403	 0.00403
 0.00468	 0.00468
 0.00403	 0.00403
 0.00403	 0.00403
 0.00403	 0.00403
 0.00403	 0.00403
 0.40253	 0.40253
 0.74842	 0.74842
 0.74941	 0.74941
 0.74809	 0.74809
 0.74908	 0.74908
 0.74941	 0.74941
 0.16152	 0.16152
 0.00501	 0.00501
 0.00436	 0.00436
 0.00403	 0.00403
 0.00468	 0.00468
 0.00436	 0.00436
 0.00436	 0.00436
 0.00468	 0.00468
 0.00468	 0.00468
 0.00436	 0.00436
 0.37951	 0.37951
 0.74842	 0.74842
 0.75105	 0.75105
 0.75039	 0.75039
 0.74711	 0.74711
 0.74579	 0.74579
 0.22564	 0.22564
 0.00534	 0.00534
 0.00468	 0.00468
 0.00468	 0.00468
 0.00436	 0.00436
 0.00436	 0.00436
 0.00468	 0.00468
 0.00436	 0.00436
 0.00436	 0.00436
 0.00468	 0.00468
 0.30257	 0.30257
 0.75072	 0.75072
 0.75072	 0.75072
 0.75007	 0.75007
 0.75335	 0.75335
 0.75533	 0.75533
 0.31244	 0.31244
 0.00534	 0.00534
 0.00436	 0.00436
 0.00468	 0.00468
 0.00436	 0.00436
 0.00468	 0.00468
 0.00436	 0.00436
 0.00436	 0.00436
 0.00403	 0.00403
 0.00436	 0.00436
 0.27002	 0.27002
 0.77275	 0.77275
 0.77472	 0.77472
 0.77604	 0.77604
 0.77604	 0.77604
 0.77374	 0.77374
 0.43245	 0.43245
 0.00666	 0.00666
 0.00403	 0.00403
 0.00403	 0.00403
 0.00468	 0.00468
 0.00436	 0.00436
 0.00468	 0.00468
 0.00436	 0.00436
 0.00403	 0.00403
 0.00436	 0.00436
 0.20032	 0.20032
 0.79084	 0.79084
 0.79149	 0.79149
 0.79051	 0.79051
 0.79051	 0.79051
 0.79182	 0.79182
 0.51169	 0.51169
 0.00600	 0.00600
 0.00468	 0.00468
 0.00403	 0.00403
 0.00468	 0.00468
 0.00403	 0.00403
 0.00436	 0.00436
 0.00370	 0.00370
 0.00403	 0.00403
 0.00403	 0.00403
 0.05039	 0.05039
 0.80530	 0.80530
 0.80695	 0.80695
 0.80530	 0.80530
 0.80530	 0.80530
 0.80530	 0.80530
 0.49262	 0.49262
 0.00567	 0.00567
 0.00468	 0.00468
 0.00436	 0.00436
 0.00403	 0.00403
 0.00468	 0.00468
 0.00436	 0.00436
 0.00403	 0.00403
 0.00468	 0.00468
 0.00468	 0.00468
 0.05433	 0.05433
 0.79840	 0.79840
 0.79708	 0.79708
 0.79445	 0.79445
 0.79380	 0.79380
 0.79347	 0.79347
 0.55377	 0.55377
 0.00797	 0.00797
 0.00403	 0.00403
 0.00468	 0.00468
 0.00436	 0.00436
 0.00501	 0.00501
 0.00436	 0.00436
 0.00534	 0.00534
 0.00436	 0.00436
 0.00534	 0.00534
 0.06288	 0.06288
 0.78558	 0.78558
 0.78689	 0.78689
 0.78689	 0.78689
 0.78656	 0.78656
 0.78755	 0.78755
 0.55279	 0.55279
 0.00699	 0.00699
 0.00436	 0.00436
 0.00403	 0.00403
 0.00403	 0.00403
 0.00436	 0.00436
 0.00468	 0.00468
 0.00436	 0.00436
 0.00403	 0.00403
 0.00468	 0.00468
 0.03197	 0.03197
 0.79116	 0.79116
 0.78985	 0.78985
 0.79182	 0.79182
 0.79215	 0.79215
 0.79215	 0.79215
 0.42817	 0.42817
 0.00468	 0.00468
 0.00403	 0.00403
 0.00468	 0.00468
 0.00468	 0.00468
 0.00436	 0.00436
 0.00403	 0.00403
 0.00468	 0.00468
 0.00436	 0.00436
 0.00468	 0.00468
 0.01027	 0.01027
 0.78952	 0.78952
 0.79544	 0.79544
 0.79445	 0.79445
 0.79971	 0.79971
 0.80399	 0.80399
 0.70568	 0.70568
 0.00962	 0.00962
 0.00468	 0.00468
 0.00403	 0.00403
 0.00468	 0.00468
 0.00468	 0.00468
 0.00436	 0.00436
 0.00436	 0.00436
 0.00403	 0.00403
 0.00436	 0.00436
 0.01060	 0.01060
 0.81977	 0.81977
 0.82503	 0.82503
 0.82602	 0.82602
 0.82766	 0.82766
 0.82865	 0.82865
 0.77045	 0.77045
 0.01225	 0.01225
 0.00436	 0.00436
 0.00436	 0.00436
 0.00436	 0.00436
 0.00436	 0.00436
 0.00436	 0.00436
 0.00468	 0.00468
 0.00436	 0.00436
 0.00436	 0.00436
 0.00863	 0.00863
 0.83259	 0.83259
 0.84180	 0.84180
 0.83917	 0.83917
 0.83654	 0.83654
 0.83720	 0.83720
 0.81484	 0.81484
 0.01521	 0.01521
 0.00468	 0.00468
 0.00468	 0.00468
 0.00468	 0.00468
 0.00436	 0.00436
 0.00436	 0.00436
 0.00436	 0.00436
 0.00468	 0.00468
 0.00436	 0.00436
 0.00633	 0.00633
 0.82306	 0.82306
 0.83424	 0.83424
 0.83391	 0.83391
 0.83325	 0.83325
 0.83259	 0.83259
 0.83292	 0.83292
 0.03296	 0.03296
 0.00468	 0.00468
 0.00436	 0.00436
 0.00436	 0.00436
 0.00436	 0.00436
 0.00403	 0.00403
 0.00501	 0.00501
 0.00468	 0.00468
 0.00501	 0.00501
 0.00600	 0.00600
 0.81221	 0.81221
 0.82635	 0.82635
 0.82503	 0.82503
 0.82109	 0.82109
 0.81747	 0.81747
 0.81385	 0.81385
 0.02671	 0.02671
 0.00403	 0.00403
 0.00436	 0.00436
 0.00403	 0.00403
 0.00468	 0.00468
 0.00436	 0.00436
 0.00436	 0.00436
 0.00436	 0.00436
 0.00436	 0.00436
 0.00468	 0.00468
 0.74546	 0.74546
 0.79675	 0.79675
 0.79412	 0.79412
 0.79314	 0.79314
 0.79215	 0.79215
 0.80300	 0.80300
 0.02803	 0.02803
 0.00436	 0.00436
 0.00436	 0.00436
 0.00403	 0.00403
 0.00403	 0.00403
 0.00436	 0.00436
 0.00370	 0.00370
 0.00403	 0.00403
 0.00436	 0.00436
 0.00403	 0.00403
 0.71686	 0.71686
 0.75894	 0.75894
 0.75796	 0.75796
 0.75500	 0.75500
 0.75171	 0.75171
 0.75138	 0.75138
 0.05302	 0.05302
 0.00468	 0.00468
 0.00436	 0.00436
 0.00337	 0.00337
 0.00468	 0.00468
 0.00436	 0.00436
 0.00468	 0.00468
 0.00403	 0.00403
 0.00468	 0.00468
 0.00403	 0.00403
 0.67050	 0.67050
 0.71817	 0.71817
 0.71554	 0.71554
 0.71225	 0.71225
 0.71192	 0.71192
 0.71620	 0.71620
 0.04250	 0.04250
 0.00436	 0.00436
 0.00468	 0.00468
 0.00468	 0.00468
 0.00468	 0.00468
 0.00403	 0.00403
 0.00403	 0.00403
 0.00403	 0.00403
 0.00468	 0.00468
 0.00436	 0.00436
 0.64321	 0.64321
 0.68825	 0.68825
 0.68825	 0.68825
 0.68661	 0.68661
 0.68398	 0.68398
 0.68200	 0.68200
 0.02145	 0.02145
 0.00468	 0.00468
 0.00436	 0.00436
 0.00436	 0.00436
 0.00403	 0.00403
 0.00468	 0.00468
 0.00436	 0.00436
 0.00501	 0.00501
 0.00468	 0.00468
 0.00468	 0.00468
 0.51892	 0.51892
 0.65702	 0.65702
 0.65439	 0.65439
 0.65373	 0.65373
 0.65406	 0.65406
 0.65241	 0.65241
 0.08294	 0.08294
 0.00468	 0.00468
 0.00403	 0.00403
 0.00468	 0.00468
 0.00403	 0.00403
 0.00436	 0.00436
 0.00403	 0.00403
 0.00436	 0.00436
 0.00468	 0.00468
 0.00436	 0.00436
 0.50084	 0.50084
 0.65143	 0.65143
 0.65373	 0.65373
 0.65274	 0.65274
 0.65307	 0.65307
 0.65504	 0.65504
 0.12206	 0.12206
 0.00501	 0.00501
 0.00403	 0.00403
 0.00436	 0.00436
 0.00436	 0.00436
 0.00468	 0.00468
 0.00403	 0.00403
 0.00436	 0.00436
 0.00370	 0.00370
 0.00436	 0.00436
 0.46434	 0.46434
 0.66885	 0.66885
 0.67214	 0.67214
 0.67378	 0.67378
 0.67543	 0.67543
 0.67543	 0.67543
 0.17664	 0.17664
 0.00436	 0.00436
 0.00436	 0.00436
 0.00403	 0.00403
 0.00436	 0.00436
 0.00403	 0.00403
 0.00468	 0.00468
 0.00436	 0.00436
 0.00501	 0.00501
 0.00436	 0.00436
 0.44790	 0.44790
 0.68694	 0.68694
 0.68825	 0.68825
 0.69022	 0.69022
 0.68957	 0.68957
 0.69055	 0.69055
 0.27331	 0.27331
 0.00567	 0.00567
 0.00436	 0.00436
 0.00468	 0.00468
 0.00468	 0.00468
 0.00468	 0.00468
 0.00403	 0.00403
 0.00436	 0.00436
 0.00436	 0.00436
 0.00403	 0.00403
 0.36998	 0.36998
 0.68825	 0.68825
 0.68694	 0.68694
 0.68661	 0.68661
 0.68595	 0.68595
 0.68661	 0.68661
 0.30783	 0.30783
 0.00534	 0.00534
 0.00436	 0.00436
 0.00436	 0.00436
 0.00468	 0.00468
 0.00403	 0.00403
 0.00501	 0.00501
 0.00468	 0.00468
 0.00436	 0.00436
 0.00468	 0.00468
 0.13522	 0.13522
 0.68759	 0.68759
 0.68727	 0.68727
 0.68694	 0.68694
 0.68727	 0.68727
 0.68792	 0.68792
 0.29041	 0.29041
 0.00534	 0.00534
 0.00436	 0.00436
 0.00468	 0.00468
 0.00436	 0.00436
 0.00468	 0.00468
 0.00501	 0.00501
 0.00501	 0.00501
 0.00468	 0.00468
 0.00468	 0.00468
 0.14048	 0.14048
 0.68891	 0.68891
 0.68759	 0.68759
 0.68858	 0.68858
 0.68759	 0.68759
 0.68628	 0.68628
 0.34630	 0.34630
 0.00567	 0.00567
 0.00403	 0.00403
 0.00436	 0.00436
 0.00403	 0.00403
 0.00403	 0.00403
 0.00436	 0.00436
 0.00436	 0.00436
 0.00436	 0.00436
 0.00370	 0.00370
 0.16612	 0.16612
 0.67970	 0.67970
 0.67937	 0.67937
 0.68003	 0.68003
 0.67510	 0.67510
 0.67609	 0.67609
 0.33776	 0.33776
 0.00468	 0.00468
 0.00436	 0.00436
 0.00436	 0.00436
 0.00403	 0.00403
 0.00403	 0.00403
 0.00436	 0.00436
 0.00403	 0.00403
 0.00501	 0.00501
 0.00436	 0.00436
 0.09247	 0.09247
 0.66392	 0.66392
 0.66458	 0.66458
 0.66491	 0.66491
 0.66491	 0.66491
 0.66359	 0.66359
 0.23451	 0.23451
 0.00534	 0.00534
 0.00468	 0.00468
 0.00436	 0.00436
 0.00501	 0.00501
 0.00468	 0.00468
 0.00436	 0.00436
 0.00436	 0.00436
 0.00468	 0.00468
 0.00436	 0.00436
 0.03822	 0.03822
 0.65702	 0.65702
 0.65373	 0.65373
 0.65504	 0.65504
 0.65504	 0.65504
 0.65340	 0.65340
 0.48144	 0.48144
 0.00699	 0.00699
 0.00403	 0.00403
 0.00436	 0.00436
 0.00436	 0.00436
 0.00370	 0.00370
 0.00468	 0.00468
 0.00468	 0.00468
 0.00501	 0.00501
 0.00468	 0.00468
 0.03559	 0.03559
 0.66030	 0.66030
 0.65702	 0.65702
 0.65504	 0.65504
 0.65504	 0.65504
 0.65340	 0.65340
 0.53043	 0.53043
 0.00797	 0.00797
 0.00403	 0.00403
 0.00403	 0.00403
 0.00436	 0.00436
 0.00436	 0.00436
 0.00501	 0.00501
 0.00468	 0.00468
 0.00436	 0.00436
 0.00436	 0.00436
 0.02310	 0.02310
 0.65241	 0.65241
 0.65373	 0.65373
 0.65537	 0.65537
 0.65669	 0.65669
 0.65734	 0.65734
 0.58928	 0.58928
 0.00962	 0.00962
 0.00436	 0.00436
 0.00403	 0.00403
 0.00436	 0.00436
 0.00468	 0.00468
 0.00436	 0.00436
 0.00436	 0.00436
 0.00436	 0.00436
 0.00468	 0.00468
 0.01685	 0.01685
 0.66063	 0.66063
 0.66820	 0.66820
 0.66951	 0.66951
 0.66820	 0.66820
 0.66951	 0.66951
 0.64814	 0.64814
 0.01685	 0.01685
 0.00468	 0.00468
 0.00403	 0.00403
 0.00403	 0.00403
 0.00468	 0.00468
 0.00436	 0.00436
 0.00403	 0.00403
 0.00436	 0.00436
 0.00436	 0.00436
 0.01093	 0.01093
 0.66951	 0.66951
 0.67642	 0.67642
 0.67543	 0.67543
 0.67642	 0.67642
 0.67905	 0.67905
 0.64748	 0.64748
 0.01521	 0.01521
 0.00468	 0.00468
 0.00403	 0.00403
 0.00436	 0.00436
 0.00403	 0.00403
 0.00403	 0.00403
 0.00436	 0.00436
 0.00403	 0.00403
 0.00436	 0.00436
 0.00468	 0.00468
 0.65702	 0.65702
 0.67642	 0.67642
 0.67346	 0.67346
 0.67411	 0.67411
 0.67411	 0.67411
 0.68135	 0.68135
 0.01586	 0.01586
 0.00534	 0.00534
 0.00403	 0.00403
 0.00370	 0.00370
 0.00436	 0.00436
 0.00436	 0.00436
 0.00403	 0.00403
 0.00501	 0.00501
 0.00468	 0.00468
 0.00534	 0.00534
 0.65406	 0.65406
 0.66852	 0.66852
 0.66721	 0.66721
 0.66425	 0.66425
 0.66261	 0.66261
 0.66721	 0.66721
 0.02737	 0.02737
 0.00468	 0.00468
 0.00468	 0.00468
 0.00468	 0.00468
 0.00501	 0.00501
 0.00501	 0.00501
 0.00436	 0.00436
 0.00403	 0.00403
 0.00403	 0.00403
 0.00468	 0.00468
 0.63795	 0.63795
 0.65504	 0.65504
 0.65603	 0.65603
 0.65570	 0.65570
 0.65570	 0.65570
 0.65702	 0.65702
 0.02375	 0.02375
 0.00468	 0.00468
 0.00468	 0.00468
 0.00403	 0.00403
 0.00468	 0.00468
 0.00403	 0.00403
 0.00436	 0.00436
 0.00468	 0.00468
 0.00403	 0.00403
 0.00468	 0.00468
 0.63630	 0.63630
 0.65143	 0.65143
 0.65208	 0.65208
 0.65241	 0.65241
 0.65011	 0.65011
 0.65340	 0.65340
 0.01225	 0.01225
 0.00403	 0.00403
 0.00403	 0.00403
 0.00436	 0.00436
 0.00468	 0.00468
 0.00403	 0.00403
 0.00403	 0.00403
 0.00403	 0.00403
 0.00436	 0.00436
 0.00403	 0.00403
 0.59652	 0.59652
 0.64518	 0.64518
 0.64386	 0.64386
 0.64321	 0.64321
 0.64518	 0.64518
 0.64551	 0.64551
 0.04677	 0.04677
 0.00403	 0.00403
 0.00436	 0.00436
 0.00468	 0.00468
 0.00436	 0.00436
 0.00436	 0.00436
 0.00436	 0.00436
 0.00403	 0.00403
 0.00468	 0.00468
 0.00436	 0.00436
 0.58468	 0.58468
 0.64617	 0.64617
 0.64715	 0.64715
 0.64945	 0.64945
 0.64945	 0.64945
 0.65044	 0.65044
 0.07110	 0.07110
 0.00468	 0.00468
 0.00403	 0.00403
 0.00468	 0.00468
 0.00403	 0.00403
 0.00403	 0.00403
 0.00468	 0.00468
 0.00436	 0.00436
 0.00468	 0.00468
 0.00501	 0.00501
 0.58337	 0.58337
 0.66063	 0.66063
 0.66129	 0.66129
 0.66293	 0.66293
 0.66228	 0.66228
 0.66326	 0.66326
 0.10332	 0.10332
 0.00534	 0.00534
 0.00403	 0.00403
 0.00468	 0.00468
 0.00403	 0.00403
 0.00468	 0.00468
 0.00468	 0.00468
 0.00436	 0.00436
 0.00436	 0.00436
 0.00436	 0.00436
 0.57646	 0.57646
 0.69088	 0.69088
 0.69516	 0.69516
 0.69713	 0.69713
 0.69910	 0.69910
 0.70173	 0.70173
 0.19374	 0.19374
 0.00534	 0.00534
 0.00436	 0.00436
 0.00436	 0.00436
 0.00436	 0.00436
 0.00436	 0.00436
 0.00436	 0.00436
 0.00436	 0.00436
 0.00436	 0.00436
 0.00403	 0.00403
 0.52352	 0.52352
 0.72179	 0.72179
 0.72212	 0.72212
 0.72508	 0.72508
 0.72475	 0.72475
 0.72541	 0.72541
 0.21479	 0.21479
 0.00436	 0.00436
 0.00436	 0.00436
 0.00403	 0.00403
 0.00436	 0.00436
 0.00436	 0.00436
 0.00403	 0.00403
 0.00468	 0.00468
 0.00403	 0.00403
 0.00403	 0.00403
 0.23155	 0.23155
 0.74316	 0.74316
 0.74349	 0.74349
 0.74645	 0.74645
 0.74711	 0.74711
 0.74875	 0.74875
 0.20624	 0.20624
 0.00534	 0.00534
 0.00403	 0.00403
 0.00436	 0.00436
 0.00468	 0.00468
 0.00403	 0.00403
 0.00468	 0.00468
 0.00403	 0.00403
 0.00436	 0.00436
 0.00468	 0.00468
 0.24668	 0.24668
 0.75500	 0.75500
 0.75664	 0.75664
 0.75664	 0.75664
 0.75631	 0.75631
 0.75796	 0.75796
 0.28515	 0.28515
 0.00534	 0.00534
 0.00436	 0.00436
 0.00436	 0.00436
 0.00436	 0.00436
 0.00468	 0.00468
 0.00436	 0.00436
 0.00468	 0.00468
 0.00468	 0.00468
 0.00468	 0.00468
 0.27660	 0.27660
 0.76453	 0.76453
 0.76552	 0.76552
 0.76519	 0.76519
 0.76420	 0.76420
 0.76552	 0.76552
 0.29764	 0.29764
 0.00534	 0.00534
 0.00468	 0.00468
 0.00436	 0.00436
 0.00436	 0.00436
 0.00468	 0.00468
 0.00436	 0.00436
 0.00403	 0.00403
 0.00501	 0.00501
 0.00436	 0.00436
 0.16119	 0.16119
 0.77505	 0.77505
 0.77571	 0.77571
 0.77670	 0.77670
 0.77768	 0.77768
 0.77999	 0.77999
 0.15199	 0.15199
 0.00468	 0.00468
 0.00436	 0.00436
 0.00403	 0.00403
 0.00403	 0.00403
 0.00436	 0.00436
 0.00436	 0.00436
 0.00468	 0.00468
 0.00436	 0.00436
 0.00468	 0.00468
 0.08458	 0.08458
 0.79314	 0.79314
 0.79445	 0.79445
 0.79544	 0.79544
 0.79544	 0.79544
 0.79577	 0.79577
 0.46368	 0.46368
 0.00600	 0.00600
 0.00436	 0.00436
 0.00403	 0.00403
 0.00403	 0.00403
 0.00436	 0.00436
 0.00468	 0.00468
 0.00436	 0.00436
 0.00468	 0.00468
 0.00403	 0.00403
 0.07538	 0.07538
 0.81484	 0.81484
 0.81648	 0.81648
 0.81944	 0.81944
 0.82339	 0.82339
 0.82569	 0.82569
 0.57219	 0.57219
 0.00731	 0.00731
 0.00436	 0.00436
 0.00436	 0.00436
 0.00468	 0.00468
 0.00370	 0.00370
 0.00403	 0.00403
 0.00436	 0.00436
 0.00403	 0.00403
 0.00403	 0.00403
 0.05729	 0.05729
 0.84574	 0.84574
 0.84838	 0.84838
 0.84903	 0.84903
 0.84969	 0.84969
 0.84969	 0.84969
 0.66458	 0.66458
 0.00797	 0.00797
 0.00403	 0.00403
 0.00436	 0.00436
 0.00436	 0.00436
 0.00468	 0.00468
 0.00436	 0.00436
 0.00403	 0.00403
 0.00468	 0.00468
 0.00403	 0.00403
 0.04282	 0.04282
 0.85824	 0.85824
 0.85791	 0.85791
 0.85627	 0.85627
 0.85692	 0.85692
 0.85692	 0.85692
 0.75763	 0.75763
 0.01258	 0.01258
 0.00436	 0.00436
 0.00468	 0.00468
 0.00468	 0.00468
 0.00468	 0.00468
 0.00468	 0.00468
 0.00468	 0.00468
 0.00468	 0.00468
 0.00501	 0.00501
 0.02507	 0.02507
 0.85002	 0.85002
 0.85429	 0.85429
 0.85396	 0.85396
 0.85265	 0.85265
 0.85298	 0.85298
 0.78492	 0.78492
 0.01225	 0.01225
 0.00436	 0.00436
 0.00436	 0.00436
 0.00403	 0.00403
 0.00436	 0.00436
 0.00436	 0.00436
 0.00468	 0.00468
 0.00436	 0.00436
 0.00468	 0.00468
 0.00534	 0.00534
 0.82602	 0.82602
 0.83917	 0.83917
 0.83752	 0.83752
 0.83489	 0.83489
 0.83128	 0.83128
 0.81352	 0.81352
 0.01126	 0.01126
 0.00403	 0.00403
 0.00468	 0.00468
 0.00436	 0.00436
 0.00436	 0.00436
 0.00436	 0.00436
 0.00436	 0.00436
 0.00436	 0.00436
 0.00436	 0.00436
 0.00567	 0.00567
 0.79215	 0.79215
 0.79675	 0.79675
 0.79380	 0.79380
 0.79116	 0.79116
 0.79182	 0.79182
 0.78031	 0.78031
 0.02211	 0.02211
 0.00370	 0.00370
 0.00468	 0.00468
 0.00436	 0.00436
 0.00436	 0.00436
 0.00436	 0.00436
 0.00403	 0.00403
 0.00403	 0.00403
 0.00436	 0.00436
 0.00534	 0.00534
 0.73724	 0.73724
 0.74480	 0.74480
 0.74382	 0.74382
 0.74086	 0.74086
 0.73921	 0.73921
 0.72146	 0.72146
 0.01718	 0.01718
 0.00468	 0.00468
 0.00436	 0.00436
 0.00436	 0.00436
 0.00403	 0.00403
 0.00436	 0.00436
 0.00436	 0.00436
 0.00436	 0.00436
 0.00436	 0.00436
 0.00501	 0.00501
 0.71094	 0.71094
 0.72343	 0.72343
 0.72409	 0.72409
 0.72212	 0.72212
 0.72278	 0.72278
 0.70140	 0.70140
 0.00929	 0.00929
 0.00436	 0.00436
 0.00501	 0.00501
 0.00403	 0.00403
 0.00436	 0.00436
 0.00436	 0.00436
 0.00436	 0.00436
 0.00436	 0.00436
 0.00403	 0.00403
 0.00436	 0.00436
 0.69844	 0.69844
 0.73658	 0.73658
 0.73658	 0.73658
 0.73790	 0.73790
 0.74185	 0.74185
 0.74513	 0.74513
 0.03000	 0.03000
 0.00468	 0.00468
 0.00436	 0.00436
 0.00436	 0.00436
 0.00436	 0.00436
 0.00436	 0.00436
 0.00436	 0.00436
 0.00436	 0.00436
 0.00436	 0.00436
 0.00436	 0.00436
 0.72080	 0.72080
 0.76289	 0.76289
 0.76289	 0.76289
 0.76124	 0.76124
 0.76453	 0.76453
 0.76716	 0.76716
 0.04480	 0.04480
 0.00501	 0.00501
 0.00436	 0.00436
 0.00436	 0.00436
 0.00403	 0.00403
 0.00468	 0.00468
 0.00436	 0.00436
 0.00436	 0.00436
 0.00468	 0.00468
 0.00403	 0.00403
 0.74349	 0.74349
 0.78393	 0.78393
 0.78689	 0.78689
 0.78853	 0.78853
 0.79182	 0.79182
 0.79347	 0.79347
 0.06124	 0.06124
 0.00436	 0.00436
 0.00403	 0.00403
 0.00468	 0.00468
 0.00468	 0.00468
 0.00436	 0.00436
 0.00403	 0.00403
 0.00403	 0.00403
 0.00436	 0.00436
 0.00468	 0.00468
 0.76092	 0.76092
 0.82141	 0.82141
 0.82569	 0.82569
 0.82865	 0.82865
 0.82996	 0.82996
 0.83194	 0.83194
 0.12568	 0.12568
 0.00468	 0.00468
 0.00403	 0.00403
 0.00403	 0.00403
 0.00436	 0.00436
 0.00436	 0.00436
 0.00468	 0.00468
 0.00436	 0.00436
 0.00436	 0.00436
 0.00436	 0.00436
 0.75171	 0.75171
 0.83983	 0.83983
 0.83851	 0.83851
 0.83983	 0.83983
 0.84081	 0.84081
 0.84311	 0.84311
 0.13226	 0.13226
 0.00436	 0.00436
 0.00436	 0.00436
 0.00468	 0.00468
 0.00436	 0.00436
 0.00403	 0.00403
 0.00403	 0.00403
 0.00468	 0.00468
 0.00436	 0.00436
 0.00403	 0.00403
 0.50577	 0.50577
 0.85199	 0.85199
 0.85331	 0.85331
 0.85528	 0.85528
 0.85857	 0.85857
 0.85923	 0.85923
 0.12963	 0.12963
 0.00468	 0.00468
 0.00436	 0.00436
 0.00403	 0.00403
 0.00468	 0.00468
 0.00403	 0.00403
 0.00436	 0.00436
 0.00436	 0.00436
 0.00436	 0.00436
 0.00468	 0.00468
 0.54457	 0.54457
 0.85627	 0.85627
 0.85396	 0.85396
 0.85396	 0.85396
 0.85265	 0.85265
 0.85199	 0.85199
 0.18684	 0.18684
 0.00468	 0.00468
 0.00468	 0.00468
 0.00468	 0.00468
 0.00403	 0.00403
 0.00468	 0.00468
 0.00468	 0.00468
 0.00436	 0.00436
 0.00403	 0.00403
 0.00370	 0.00370
 0.56923	 0.56923
 0.83654	 0.83654
 0.83555	 0.83555
 0.83391	 0.83391
 0.83292	 0.83292
 0.83226	 0.83226
 0.18881	 0.18881
 0.00468	 0.00468
 0.00436	 0.00436
 0.00403	 0.00403
 0.00403	 0.00403
 0.00436	 0.00436
 0.00436	 0.00436
 0.00403	 0.00403
 0.00436	 0.00436
 0.00403	 0.00403
 0.38872	 0.38872
 0.83489	 0.83489
 0.83522	 0.83522
 0.83489	 0.83489
 0.83424	 0.83424
 0.83095	 0.83095
 0.08064	 0.08064
 0.00436	 0.00436
 0.00468	 0.00468
 0.00468	 0.00468
 0.00436	 0.00436
 0.00436	 0.00436
 0.00468	 0.00468
 0.00403	 0.00403
 0.00436	 0.00436
 0.00468	 0.00468
 0.23155	 0.23155
 0.81911	 0.81911
 0.81714	 0.81714
 0.81714	 0.81714
 0.81681	 0.81681
 0.81714	 0.81714
 0.31441	 0.31441
 0.00534	 0.00534
 0.00403	 0.00403
 0.00436	 0.00436
 0.00468	 0.00468
 0.00436	 0.00436
 0.00468	 0.00468
 0.00436	 0.00436
 0.00436	 0.00436
 0.00403	 0.00403
 0.21150	 0.21150
 0.81352	 0.81352
 0.81418	 0.81418
 0.81352	 0.81352
 0.81582	 0.81582
 0.81681	 0.81681
 0.40483	 0.40483
 0.00567	 0.00567
 0.00403	 0.00403
 0.00436	 0.00436
 0.00468	 0.00468
 0.00436	 0.00436
 0.00403	 0.00403
 0.00403	 0.00403
 0.00436	 0.00436
 0.00468	 0.00468
 0.16251	 0.16251
 0.81451	 0.81451
 0.81352	 0.81352
 0.81122	 0.81122
 0.81023	 0.81023
 0.80826	 0.80826
 0.49163	 0.49163
 0.00567	 0.00567
 0.00403	 0.00403
 0.00468	 0.00468
 0.00436	 0.00436
 0.00436	 0.00436
 0.00436	 0.00436
 0.00403	 0.00403
 0.00436	 0.00436
 0.00403	 0.00403
 0.12897	 0.12897
 0.81747	 0.81747
 0.81813	 0.81813
 0.81977	 0.81977
 0.81845	 0.81845
 0.81977	 0.81977
 0.60934	 0.60934
 0.00863	 0.00863
 0.00436	 0.00436
 0.00436	 0.00436
 0.00403	 0.00403
 0.00436	 0.00436
 0.00436	 0.00436
 0.00436	 0.00436
 0.00403	 0.00403
 0.00436	 0.00436
 0.08754	 0.08754
 0.81484	 0.81484
 0.81615	 0.81615
 0.81451	 0.81451
 0.81221	 0.81221
 0.81089	 0.81089
 0.64617	 0.64617
 0.00731	 0.00731
 0.00436	 0.00436
 0.00436	 0.00436
 0.00436	 0.00436
 0.00436	 0.00436
 0.00403	 0.00403
 0.00436	 0.00436
 0.00436	 0.00436
 0.00436	 0.00436
 0.01455	 0.01455
 0.79840	 0.79840
 0.80432	 0.80432
 0.80333	 0.80333
 0.80366	 0.80366
 0.80300	 0.80300
 0.70042	 0.70042
 0.00797	 0.00797
 0.00468	 0.00468
 0.00436	 0.00436
 0.00436	 0.00436
 0.00468	 0.00468
 0.00436	 0.00436
 0.00468	 0.00468
 0.00436	 0.00436
 0.00403	 0.00403
 0.01652	 0.01652
 0.79412	 0.79412
 0.79544	 0.79544
 0.79445	 0.79445
 0.79314	 0.79314
 0.79084	 0.79084
 0.72146	 0.72146
 0.01323	 0.01323
 0.00436	 0.00436
 0.00436	 0.00436
 0.00436	 0.00436
 0.00468	 0.00468
 0.00468	 0.00468
 0.00436	 0.00436
 0.00436	 0.00436
 0.00468	 0.00468
 0.01521	 0.01521
 0.76355	 0.76355
 0.76716	 0.76716
 0.76519	 0.76519
 0.76124	 0.76124
 0.75861	 0.75861
 0.66852	 0.66852
 0.01093	 0.01093
 0.00468	 0.00468
 0.00436	 0.00436
 0.00468	 0.00468
 0.00468	 0.00468
 0.00468	 0.00468
 0.00436	 0.00436
 0.00468	 0.00468
 0.00370	 0.00370
 0.00863	 0.00863
 0.73363	 0.73363
 0.74448	 0.74448
 0.74053	 0.74053
 0.73987	 0.73987
 0.74119	 0.74119
 0.66918	 0.66918
 0.00731	 0.00731
 0.00436	 0.00436
 0.00436	 0.00436
 0.00403	 0.00403
 0.00403	 0.00403
 0.00436	 0.00436
 0.00403	 0.00403
 0.00436	 0.00436
 0.00436	 0.00436
 0.00468	 0.00468
 0.71160	 0.71160
 0.72771	 0.72771
 0.72968	 0.72968
 0.72804	 0.72804
 0.72475	 0.72475
 0.72409	 0.72409
 0.01882	 0.01882
 0.00501	 0.00501
 0.00403	 0.00403
 0.00436	 0.00436
 0.00436	 0.00436
 0.00468	 0.00468
 0.00436	 0.00436
 0.00468	 0.00468
 0.00468	 0.00468
 0.00468	 0.00468
 0.69614	 0.69614
 0.72080	 0.72080
 0.72212	 0.72212
 0.72212	 0.72212
 0.71982	 0.71982
 0.72343	 0.72343
 0.03099	 0.03099
 0.00436	 0.00436
 0.00468	 0.00468
 0.00468	 0.00468
 0.00468	 0.00468
 0.00436	 0.00436
 0.00468	 0.00468
 0.00436	 0.00436
 0.00403	 0.00403
 0.00436	 0.00436
 0.68924	 0.68924
 0.71883	 0.71883
 0.71949	 0.71949
 0.71916	 0.71916
 0.71751	 0.71751
 0.71521	 0.71521
 0.04151	 0.04151
 0.00468	 0.00468
 0.00436	 0.00436
 0.00370	 0.00370
 0.00468	 0.00468
 0.00403	 0.00403
 0.00436	 0.00436
 0.00534	 0.00534
 0.00468	 0.00468
 0.00501	 0.00501
 0.68858	 0.68858
 0.73132	 0.73132
 0.72705	 0.72705
 0.72639	 0.72639
 0.72836	 0.72836
 0.73001	 0.73001
 0.09938	 0.09938
 0.00468	 0.00468
 0.00436	 0.00436
 0.00468	 0.00468
 0.00468	 0.00468
 0.00436	 0.00436
 0.00501	 0.00501
 0.00468	 0.00468
 0.00436	 0.00436
 0.00436	 0.00436
 0.66491	 0.66491
 0.73724	 0.73724
 0.73560	 0.73560
 0.73593	 0.73593
 0.73757	 0.73757
 0.74217	 0.74217
 0.10530	 0.10530
 0.00468	 0.00468
 0.00436	 0.00436
 0.00403	 0.00403
 0.00403	 0.00403
 0.00370	 0.00370
 0.00436	 0.00436
 0.00436	 0.00436
 0.00468	 0.00468
 0.00436	 0.00436
 0.42883	 0.42883
 0.73921	 0.73921
 0.73658	 0.73658
 0.73691	 0.73691
 0.73757	 0.73757
 0.73724	 0.73724
 0.09839	 0.09839
 0.00436	 0.00436
 0.00403	 0.00403
 0.00436	 0.00436
 0.00436	 0.00436
 0.00468	 0.00468
 0.00436	 0.00436
 0.00403	 0.00403
 0.00501	 0.00501
 0.00436	 0.00436
 0.42489	 0.42489
 0.72968	 0.72968
 0.72902	 0.72902
 0.73034	 0.73034
 0.73132	 0.73132
 0.73132	 0.73132
 0.17303	 0.17303
 0.00534	 0.00534
 0.00436	 0.00436
 0.00436	 0.00436
 0.00436	 0.00436
 0.00436	 0.00436
 0.00403	 0.00403
 0.00436	 0.00436
 0.00436	 0.00436
 0.00468	 0.00468
 0.43015	 0.43015
 0.72376	 0.72376
 0.72343	 0.72343
 0.72310	 0.72310
 0.72343	 0.72343
 0.72343	 0.72343
 0.17566	 0.17566
 0.00436	 0.00436
 0.00403	 0.00403
 0.00436	 0.00436
 0.00468	 0.00468
 0.00468	 0.00468
 0.00436	 0.00436
 0.00436	 0.00436
 0.00468	 0.00468
 0.00436	 0.00436
 0.28679	 0.28679
 0.72869	 0.72869
 0.72804	 0.72804
 0.73001	 0.73001
 0.73395	 0.73395
 0.73395	 0.73395
 0.07143	 0.07143
 0.00468	 0.00468
 0.00436	 0.00436
 0.00468	 0.00468
 0.00468	 0.00468
 0.00436	 0.00436
 0.00436	 0.00436
 0.00436	 0.00436
 0.00403	 0.00403
 0.00468	 0.00468
 0.16612	 0.16612
 0.76387	 0.76387
 0.76848	 0.76848
 0.77275	 0.77275
 0.77440	 0.77440
 0.77867	 0.77867
 0.31836	 0.31836
 0.00534	 0.00534
 0.00436	 0.00436
 0.00436	 0.00436
 0.00370	 0.00370
 0.00436	 0.00436
 0.00468	 0.00468
 0.00403	 0.00403
 0.00468	 0.00468
 0.00436	 0.00436
 0.16645	 0.16645
 0.82372	 0.82372
 0.82865	 0.82865
 0.83391	 0.83391
 0.83588	 0.83588
 0.83720	 0.83720
 0.44001	 0.44001
 0.00600	 0.00600
 0.00436	 0.00436
 0.00436	 0.00436
 0.00468	 0.00468
 0.00436	 0.00436
 0.00468	 0.00468
 0.00403	 0.00403
 0.00436	 0.00436
 0.00468	 0.00468
 0.12996	 0.12996
 0.84969	 0.84969
 0.85002	 0.85002
 0.85166	 0.85166
 0.85396	 0.85396
 0.85495	 0.85495
 0.54095	 0.54095
 0.00633	 0.00633
 0.00468	 0.00468
 0.00501	 0.00501
 0.00468	 0.00468
 0.00403	 0.00403
 0.00403	 0.00403
 0.00403	 0.00403
 0.00436	 0.00436
 0.00403	 0.00403
 0.10858	 0.10858
 0.87172	 0.87172
 0.87468	 0.87468
 0.87797	 0.87797
 0.87501	 0.87501
 0.87862	 0.87862
 0.67115	 0.67115
 0.00896	 0.00896
 0.00403	 0.00403
 0.00403	 0.00403
 0.00436	 0.00436
 0.00468	 0.00468
 0.00403	 0.00403
 0.00534	 0.00534
 0.00436	 0.00436
 0.00468	 0.00468
 0.06979	 0.06979
 0.87139	 0.87139
 0.87238	 0.87238
 0.87369	 0.87369
 0.87435	 0.87435
 0.87698	 0.87698
 0.73231	 0.73231
 0.00896	 0.00896
 0.00436	 0.00436
 0.00436	 0.00436
 0.00501	 0.00501
 0.00436	 0.00436
 0.00403	 0.00403
 0.00436	 0.00436
 0.00403	 0.00403
 0.00436	 0.00436
 0.01060	 0.01060
 0.85561	 0.85561
 0.86547	 0.86547
 0.86317	 0.86317
 0.86218	 0.86218
 0.86153	 0.86153
 0.77801	 0.77801
 0.00863	 0.00863
 0.00468	 0.00468
 0.00436	 0.00436
 0.00436	 0.00436
 0.00403	 0.00403
 0.00436	 0.00436
 0.00337	 0.00337
 0.00436	 0.00436
 0.00468	 0.00468
 0.01093	 0.01093
 0.84081	 0.84081
 0.84542	 0.84542
 0.84246	 0.84246
 0.83687	 0.83687
 0.83358	 0.83358
 0.78722	 0.78722
 0.01521	 0.01521
 0.00436	 0.00436
 0.00436	 0.00436
 0.00436	 0.00436
 0.00436	 0.00436
 0.00436	 0.00436
 0.00436	 0.00436
 0.00403	 0.00403
 0.00403	 0.00403
 0.00863	 0.00863
 0.78459	 0.78459
 0.79182	 0.79182
 0.78656	 0.78656
 0.78327	 0.78327
 0.78163	 0.78163
 0.72836	 0.72836
 0.01389	 0.01389
 0.00468	 0.00468
 0.00501	 0.00501
 0.00468	 0.00468
 0.00436	 0.00436
 0.00436	 0.00436
 0.00370	 0.00370
 0.00468	 0.00468
 0.00468	 0.00468
 0.00633	 0.00633
 0.73626	 0.73626
 0.74316	 0.74316
 0.74086	 0.74086
 0.73921	 0.73921
 0.73757	 0.73757
 0.69450	 0.69450
 0.00797	 0.00797
 0.00436	 0.00436
 0.00468	 0.00468
 0.00403	 0.00403
 0.00436	 0.00436
 0.00468	 0.00468
 0.00501	 0.00501
 0.00534	 0.00534
 0.00468	 0.00468
 0.00468	 0.00468
 0.67707	 0.67707
 0.70173	 0.70173
 0.70075	 0.70075
 0.69844	 0.69844
 0.69976	 0.69976
 0.69877	 0.69877
 0.02540	 0.02540
 0.00436	 0.00436
 0.00501	 0.00501
 0.00468	 0.00468
 0.00468	 0.00468
 0.00436	 0.00436
 0.00436	 0.00436
 0.00436	 0.00436
 0.00436	 0.00436
 0.00501	 0.00501
 0.65241	 0.65241
 0.68628	 0.68628
 0.68562	 0.68562
 0.68595	 0.68595
 0.68595	 0.68595
 0.68463	 0.68463
 0.04250	 0.04250
 0.00403	 0.00403
 0.00436	 0.00436
 0.00436	 0.00436
 0.00403	 0.00403
 0.00468	 0.00468
 0.00403	 0.00403
 0.00436	 0.00436
 0.00436	 0.00436
 0.00403	 0.00403
 0.64617	 0.64617
 0.67970	 0.67970
 0.68003	 0.68003
 0.67839	 0.67839
 0.67773	 0.67773
 0.67510	 0.67510
 0.05795	 0.05795
 0.00468	 0.00468
 0.00370	 0.00370
 0.00403	 0.00403
 0.00468	 0.00468
 0.00436	 0.00436
 0.00403	 0.00403
 0.00468	 0.00468
 0.00436	 0.00436
 0.00436	 0.00436
 0.62808	 0.62808
 0.67806	 0.67806
 0.68135	 0.68135
 0.67970	 0.67970
 0.68069	 0.68069
 0.68332	 0.68332
 0.12733	 0.12733
 0.00436	 0.00436
 0.00468	 0.00468
 0.00468	 0.00468
 0.00468	 0.00468
 0.00403	 0.00403
 0.00436	 0.00436
 0.00436	 0.00436
 0.00436	 0.00436
 0.00436	 0.00436
 0.58830	 0.58830
 0.68990	 0.68990
 0.68924	 0.68924
 0.68792	 0.68792
 0.68727	 0.68727
 0.68661	 0.68661
 0.14377	 0.14377
 0.00403	 0.00403
 0.00436	 0.00436
 0.00436	 0.00436
 0.00436	 0.00436
 0.00468	 0.00468
 0.00468	 0.00468
 0.00468	 0.00468
 0.00468	 0.00468
 0.00468	 0.00468
 0.30553	 0.30553
 0.67576	 0.67576
 0.67510	 0.67510
 0.67214	 0.67214
 0.67148	 0.67148
 0.67148	 0.67148
 0.13949	 0.13949
 0.00534	 0.00534
 0.00468	 0.00468
 0.00436	 0.00436
 0.00501	 0.00501
 0.00468	 0.00468
 0.00436	 0.00436
 0.00436	 0.00436
 0.00403	 0.00403
 0.00468	 0.00468
 0.30159	 0.30159
 0.66392	 0.66392
 0.66491	 0.66491
 0.66195	 0.66195
 0.66162	 0.66162
 0.66162	 0.66162
 0.21347	 0.21347
 0.00534	 0.00534
 0.00436	 0.00436
 0.00436	 0.00436
 0.00403	 0.00403
 0.00403	 0.00403
 0.00436	 0.00436
 0.00436	 0.00436
 0.00436	 0.00436
 0.00436	 0.00436
 0.30520	 0.30520
 0.65307	 0.65307
 0.64945	 0.64945
 0.64715	 0.64715
 0.64551	 0.64551
 0.64551	 0.64551
 0.22531	 0.22531
 0.00501	 0.00501
 0.00436	 0.00436
 0.00403	 0.00403
 0.00436	 0.00436
 0.00468	 0.00468
 0.00468	 0.00468
 0.00436	 0.00436
 0.00436	 0.00436
 0.00403	 0.00403
 0.17007	 0.17007
 0.63137	 0.63137
 0.63203	 0.63203
 0.63038	 0.63038
 0.62710	 0.62710
 0.63005	 0.63005
 0.11746	 0.11746
 0.00534	 0.00534
 0.00468	 0.00468
 0.00436	 0.00436
 0.00468	 0.00468
 0.00468	 0.00468
 0.00403	 0.00403
 0.00436	 0.00436
 0.00468	 0.00468
 0.00468	 0.00468
 0.08327	 0.08327
 0.61789	 0.61789
 0.61920	 0.61920
 0.61657	 0.61657
 0.61427	 0.61427
 0.61559	 0.61559
 0.36110	 0.36110
 0.00567	 0.00567
 0.00436	 0.00436
 0.00436	 0.00436
 0.00436	 0.00436
 0.00436	 0.00436
 0.00468	 0.00468
 0.00436	 0.00436
 0.00468	 0.00468
 0.00501	 0.00501
 0.06551	 0.06551
 0.61296	 0.61296
 0.61329	 0.61329
 0.61526	 0.61526
 0.61625	 0.61625
 0.61657	 0.61657
 0.43508	 0.43508
 0.00666	 0.00666
 0.00436	 0.00436
 0.00468	 0.00468
 0.00468	 0.00468
 0.00403	 0.00403
 0.00403	 0.00403
 0.00436	 0.00436
 0.00436	 0.00436
 0.00436	 0.00436
 0.04282	 0.04282
 0.62315	 0.62315
 0.62578	 0.62578
 0.62710	 0.62710
 0.62808	 0.62808
 0.63005	 0.63005
 0.51629	 0.51629
 0.00731	 0.00731
 0.00436	 0.00436
 0.00403	 0.00403
 0.00436	 0.00436
 0.00436	 0.00436
 0.00468	 0.00468
 0.00436	 0.00436
 0.00436	 0.00436
 0.00436	 0.00436
 0.02934	 0.02934
 0.64189	 0.64189
 0.64321	 0.64321
 0.64288	 0.64288
 0.64222	 0.64222
 0.64255	 0.64255
 0.59652	 0.59652
 0.01422	 0.01422
 0.00468	 0.00468
 0.00468	 0.00468
 0.00436	 0.00436
 0.00468	 0.00468
 0.00403	 0.00403
 0.00403	 0.00403
 0.00436	 0.00436
 0.00403	 0.00403
 0.01619	 0.01619
 0.65011	 0.65011
 0.65406	 0.65406
 0.65373	 0.65373
 0.65570	 0.65570
 0.65702	 0.65702
 0.61756	 0.61756
 0.01323	 0.01323
 0.00468	 0.00468
 0.00403	 0.00403
 0.00436	 0.00436
 0.00436	 0.00436
 0.00403	 0.00403
 0.00403	 0.00403
 0.00436	 0.00436
 0.00436	 0.00436
 0.00534	 0.00534
 0.64452	 0.64452
 0.65833	 0.65833
 0.65800	 0.65800
 0.65734	 0.65734
 0.65570	 0.65570
 0.65965	 0.65965
 0.01323	 0.01323
 0.00436	 0.00436
 0.00436	 0.00436
 0.00436	 0.00436
 0.00501	 0.00501
 0.00436	 0.00436
 0.00436	 0.00436
 0.00436	 0.00436
 0.00403	 0.00403
 0.00534	 0.00534
 0.64584	 0.64584
 0.65603	 0.65603
 0.65504	 0.65504
 0.65669	 0.65669
 0.65800	 0.65800
 0.66293	 0.66293
 0.02507	 0.02507
 0.00468	 0.00468
 0.00436	 0.00436
 0.00436	 0.00436
 0.00436	 0.00436
 0.00436	 0.00436
 0.00403	 0.00403
 0.00468	 0.00468
 0.00468	 0.00468
 0.00501	 0.00501
 0.63959	 0.63959
 0.65471	 0.65471
 0.65636	 0.65636
 0.65373	 0.65373
 0.65307	 0.65307
 0.65241	 0.65241
 0.02145	 0.02145
 0.00468	 0.00468
 0.00468	 0.00468
 0.00403	 0.00403
 0.00436	 0.00436
 0.00436	 0.00436
 0.00436	 0.00436
 0.00468	 0.00468
 0.00501	 0.00501
 0.00501	 0.00501
 0.63137	 0.63137
 0.64288	 0.64288
 0.64189	 0.64189
 0.64156	 0.64156
 0.64288	 0.64288
 0.64912	 0.64912
 0.01258	 0.01258
 0.00436	 0.00436
 0.00403	 0.00403
 0.00468	 0.00468
 0.00468	 0.00468
 0.00468	 0.00468
 0.00468	 0.00468
 0.00403	 0.00403
 0.00403	 0.00403
 0.00468	 0.00468
 0.58764	 0.58764
 0.64189	 0.64189
 0.64222	 0.64222
 0.64386	 0.64386
 0.64584	 0.64584
 0.64715	 0.64715
 0.05072	 0.05072
 0.00436	 0.00436
 0.00436	 0.00436
 0.00468	 0.00468
 0.00403	 0.00403
 0.00370	 0.00370
 0.00370	 0.00370
 0.00468	 0.00468
 0.00436	 0.00436
 0.00403	 0.00403
 0.57942	 0.57942
 0.64880	 0.64880
 0.65077	 0.65077
 0.65176	 0.65176
 0.65176	 0.65176
 0.65274	 0.65274
 0.08064	 0.08064
 0.00534	 0.00534
 0.00436	 0.00436
 0.00468	 0.00468
 0.00468	 0.00468
 0.00436	 0.00436
 0.00468	 0.00468
 0.00436	 0.00436
 0.00468	 0.00468
 0.00403	 0.00403
 0.55575	 0.55575
 0.66162	 0.66162
 0.66162	 0.66162
 0.66293	 0.66293
 0.66392	 0.66392
 0.66622	 0.66622
 0.12963	 0.12963
 0.00468	 0.00468
 0.00436	 0.00436
 0.00403	 0.00403
 0.00403	 0.00403
 0.00403	 0.00403
 0.00436	 0.00436
 0.00468	 0.00468
 0.00468	 0.00468
 0.00436	 0.00436
 0.51892	 0.51892
 0.68036	 0.68036
 0.68233	 0.68233
 0.68200	 0.68200
 0.68332	 0.68332
 0.68398	 0.68398
 0.23057	 0.23057
 0.00468	 0.00468
 0.00436	 0.00436
 0.00403	 0.00403
 0.00436	 0.00436
 0.00436	 0.00436
 0.00468	 0.00468
 0.00534	 0.00534
 0.00436	 0.00436
 0.00436	 0.00436
 0.41995	 0.41995
 0.69713	 0.69713
 0.69450	 0.69450
 0.69516	 0.69516
 0.69647	 0.69647
 0.70075	 0.70075
 0.28416	 0.28416
 0.00567	 0.00567
 0.00468	 0.00468
 0.00468	 0.00468
 0.00468	 0.00468
 0.00403	 0.00403
 0.00468	 0.00468
 0.00370	 0.00370
 0.00436	 0.00436
 0.00403	 0.00403
 0.14344	 0.14344
 0.70173	 0.70173
 0.70371	 0.70371
 0.70338	 0.70338
 0.70436	 0.70436
 0.70502	 0.70502
 0.28712	 0.28712
 0.00468	 0.00468
 0.00436	 0.00436
 0.00403	 0.00403
 0.00468	 0.00468
 0.00403	 0.00403
 0.00403	 0.00403
 0.00534	 0.00534
 0.00403	 0.00403
 0.00501	 0.00501
 0.13423	 0.13423
 0.70239	 0.70239
 0.70140	 0.70140
 0.70107	 0.70107
 0.70173	 0.70173
 0.70305	 0.70305
 0.36340	 0.36340
 0.00666	 0.00666
 0.00436	 0.00436
 0.00468	 0.00468
 0.00501	 0.00501
 0.00436	 0.00436
 0.00468	 0.00468
 0.00501	 0.00501
 0.00436	 0.00436
 0.00403	 0.00403
 0.13620	 0.13620
 0.70107	 0.70107
 0.70239	 0.70239
 0.70107	 0.70107
 0.70239	 0.70239
 0.70305	 0.70305
 0.38839	 0.38839
 0.00567	 0.00567
 0.00534	 0.00534
 0.00468	 0.00468
 0.00436	 0.00436
 0.00370	 0.00370
 0.00436	 0.00436
 0.00468	 0.00468
 0.00436	 0.00436
 0.00436	 0.00436
 0.06683	 0.06683
 0.70436	 0.70436
 0.70371	 0.70371
 0.70535	 0.70535
 0.70666	 0.70666
 0.70699	 0.70699
 0.29403	 0.29403
 0.00501	 0.00501
 0.00403	 0.00403
 0.00403	 0.00403
 0.00403	 0.00403
 0.00403	 0.00403
 0.00436	 0.00436
 0.00468	 0.00468
 0.00436	 0.00436
 0.00436	 0.00436
 0.01981	 0.01981
 0.70864	 0.70864
 0.71061	 0.71061
 0.71160	 0.71160
 0.71061	 0.71061
 0.71357	 0.71357
 0.58600	 0.58600
 0.00830	 0.00830
 0.00436	 0.00436
 0.00436	 0.00436
 0.00436	 0.00436
 0.00468	 0.00468
 0.00468	 0.00468
 0.00436	 0.00436
 0.00370	 0.00370
 0.00436	 0.00436
 0.01652	 0.01652
 0.72869	 0.72869
 0.73165	 0.73165
 0.73461	 0.73461
 0.73363	 0.73363
 0.73658	 0.73658
 0.66491	 0.66491
 0.01060	 0.01060
 0.00436	 0.00436
 0.00468	 0.00468
 0.00403	 0.00403
 0.00468	 0.00468
 0.00436	 0.00436
 0.00436	 0.00436
 0.00436	 0.00436
 0.00436	 0.00436
 0.01093	 0.01093
 0.75237	 0.75237
 0.76157	 0.76157
 0.76157	 0.76157
 0.76157	 0.76157
 0.76552	 0.76552
 0.74250	 0.74250
 0.01422	 0.01422
 0.00468	 0.00468
 0.00403	 0.00403
 0.00436	 0.00436
 0.00468	 0.00468
 0.00436	 0.00436
 0.00468	 0.00468
 0.00436	 0.00436
 0.00468	 0.00468
 0.00666	 0.00666
 0.79215	 0.79215
 0.80399	 0.80399
 0.80629	 0.80629
 0.80892	 0.80892
 0.81155	 0.81155
 0.81582	 0.81582
 0.03263	 0.03263
 0.00436	 0.00436
 0.00403	 0.00403
 0.00468	 0.00468
 0.00436	 0.00436
 0.00436	 0.00436
 0.00436	 0.00436
 0.00468	 0.00468
 0.00436	 0.00436
 0.00534	 0.00534
 0.82503	 0.82503
 0.84213	 0.84213
 0.84377	 0.84377
 0.84081	 0.84081
 0.83950	 0.83950
 0.83522	 0.83522
 0.02869	 0.02869
 0.00436	 0.00436
 0.00436	 0.00436
 0.00501	 0.00501
 0.00436	 0.00436
 0.00436	 0.00436
 0.00501	 0.00501
 0.00436	 0.00436
 0.00436	 0.00436
 0.00436	 0.00436
 0.78229	 0.78229
 0.84870	 0.84870
 0.84838	 0.84838
 0.84969	 0.84969
 0.85035	 0.85035
 0.85955	 0.85955
 0.03362	 0.03362
 0.00436	 0.00436
 0.00436	 0.00436
 0.00436	 0.00436
 0.00436	 0.00436
 0.00403	 0.00403
 0.00436	 0.00436
 0.00468	 0.00468
 0.00370	 0.00370
 0.00468	 0.00468
 0.78853	 0.78853
 0.85265	 0.85265
 0.85364	 0.85364
 0.85364	 0.85364
 0.85035	 0.85035
 0.84936	 0.84936
 0.07373	 0.07373
 0.00403	 0.00403
 0.00436	 0.00436
 0.00436	 0.00436
 0.00403	 0.00403
 0.00436	 0.00436
 0.00436	 0.00436
 0.00436	 0.00436
 0.00436	 0.00436
 0.00436	 0.00436
 0.75598	 0.75598
 0.83917	 0.83917
 0.83720	 0.83720
 0.83654	 0.83654
 0.83818	 0.83818
 0.83950	 0.83950
 0.06847	 0.06847
 0.00436	 0.00436
 0.00436	 0.00436
 0.00468	 0.00468
 0.00468	 0.00468
 0.00534	 0.00534
 0.00468	 0.00468
 0.00436	 0.00436
 0.00468	 0.00468
 0.00534	 0.00534
 0.66162	 0.66162
 0.82569	 0.82569
 0.82306	 0.82306
 0.82470	 0.82470
 0.82207	 0.82207
 0.82109	 0.82109
 0.03460	 0.03460
 0.00468	 0.00468
 0.00468	 0.00468
 0.00403	 0.00403
 0.00468	 0.00468
 0.00436	 0.00436
 0.00468	 0.00468
 0.00436	 0.00436
 0.00468	 0.00468
 0.00468	 0.00468
 0.42258	 0.42258
 0.79906	 0.79906
 0.79445	 0.79445
 0.79182	 0.79182
 0.79182	 0.79182
 0.78985	 0.78985
 0.16678	 0.16678
 0.00468	 0.00468
 0.00436	 0.00436
 0.00436	 0.00436
 0.00468	 0.00468
 0.00436	 0.00436
 0.00501	 0.00501
 0.00403	 0.00403
 0.00436	 0.00436
 0.00436	 0.00436
 0.37031	 0.37031
 0.79182	 0.79182
 0.79544	 0.79544
 0.79971	 0.79971
 0.80037	 0.80037
 0.80267	 0.80267
 0.25490	 0.25490
 0.00468	 0.00468
 0.00436	 0.00436
 0.00436	 0.00436
 0.00468	 0.00468
 0.00403	 0.00403
 0.00468	 0.00468
 0.00436	 0.00436
 0.00468	 0.00468
 0.00468	 0.00468
 0.28482	 0.28482
 0.82996	 0.82996
 0.83391	 0.83391
 0.83752	 0.83752
 0.83983	 0.83983
 0.84016	 0.84016
 0.37688	 0.37688
 0.00501	 0.00501
 0.00403	 0.00403
 0.00403	 0.00403
 0.00436	 0.00436
 0.00468	 0.00468
 0.00436	 0.00436
 0.00436	 0.00436
 0.00403	 0.00403
 0.00468	 0.00468
 0.23780	 0.23780
 0.85265	 0.85265
 0.85462	 0.85462
 0.85528	 0.85528
 0.85627	 0.85627
 0.85692	 0.85692
 0.52879	 0.52879
 0.00699	 0.00699
 0.00468	 0.00468
 0.00468	 0.00468
 0.00436	 0.00436
 0.00436	 0.00436
 0.00468	 0.00468
 0.00403	 0.00403
 0.00468	 0.00468
 0.00403	 0.00403
 0.15856	 0.15856
 0.85298	 0.85298
 0.85495	 0.85495
 0.85495	 0.85495
 0.85528	 0.85528
 0.85528	 0.85528
 0.61592	 0.61592
 0.00666	 0.00666
 0.00534	 0.00534
 0.00403	 0.00403
 0.00403	 0.00403
 0.00403	 0.00403
 0.00403	 0.00403
 0.00436	 0.00436
 0.00501	 0.00501
 0.00436	 0.00436
 0.02967	 0.02967
 0.84903	 0.84903
 0.85166	 0.85166
 0.84838	 0.84838
 0.84772	 0.84772
 0.84607	 0.84607
 0.63400	 0.63400
 0.00666	 0.00666
 0.00468	 0.00468
 0.00436	 0.00436
 0.00468	 0.00468
 0.00436	 0.00436
 0.00436	 0.00436
 0.00468	 0.00468
 0.00403	 0.00403
 0.00436	 0.00436
 0.02507	 0.02507
 0.83292	 0.83292
 0.83588	 0.83588
 0.83292	 0.83292
 0.83128	 0.83128
 0.82898	 0.82898
 0.70568	 0.70568
 0.01126	 0.01126
 0.00468	 0.00468
 0.00403	 0.00403
 0.00436	 0.00436
 0.00403	 0.00403
 0.00436	 0.00436
 0.00403	 0.00403
 0.00468	 0.00468
 0.00436	 0.00436
 0.02375	 0.02375
 0.80267	 0.80267
 0.80497	 0.80497
 0.80234	 0.80234
 0.79873	 0.79873
 0.79774	 0.79774
 0.67115	 0.67115
 0.00896	 0.00896
 0.00436	 0.00436
 0.00403	 0.00403
 0.00436	 0.00436
 0.00436	 0.00436
 0.00468	 0.00468
 0.00468	 0.00468
 0.00436	 0.00436
 0.00403	 0.00403
 0.01060	 0.01060
 0.76683	 0.76683
 0.77768	 0.77768
 0.77801	 0.77801
 0.77538	 0.77538
 0.77440	 0.77440
 0.65899	 0.65899
 0.00699	 0.00699
 0.00468	 0.00468
 0.00436	 0.00436
 0.00436	 0.00436
 0.00436	 0.00436
 0.00436	 0.00436
 0.00436	 0.00436
 0.00436	 0.00436
 0.00436	 0.00436
 0.00468	 0.00468
 0.74645	 0.74645
 0.76026	 0.76026
 0.76059	 0.76059
 0.75894	 0.75894
 0.75927	 0.75927
 0.75894	 0.75894
 0.01948	 0.01948
 0.00468	 0.00468
 0.00436	 0.00436
 0.00403	 0.00403
 0.00436	 0.00436
 0.00436	 0.00436
 0.00436	 0.00436
 0.00436	 0.00436
 0.00468	 0.00468
 0.00567	 0.00567
 0.72771	 0.72771
 0.75007	 0.75007
 0.74711	 0.74711
 0.74612	 0.74612
 0.74513	 0.74513
 0.74743	 0.74743
 0.03165	 0.03165
 0.00436	 0.00436
 0.00403	 0.00403
 0.00468	 0.00468
 0.00468	 0.00468
 0.00436	 0.00436
 0.00403	 0.00403
 0.00468	 0.00468
 0.00436	 0.00436
 0.00403	 0.00403
 0.71883	 0.71883
 0.74743	 0.74743
 0.74941	 0.74941
 0.75105	 0.75105
 0.75171	 0.75171
 0.75302	 0.75302
 0.04710	 0.04710
 0.00468	 0.00468
 0.00436	 0.00436
 0.00403	 0.00403
 0.00436	 0.00436
 0.00403	 0.00403
 0.00436	 0.00436
 0.00534	 0.00534
 0.00436	 0.00436
 0.00403	 0.00403
 0.71291	 0.71291
 0.75861	 0.75861
 0.75861	 0.75861
 0.75894	 0.75894
 0.75960	 0.75960
 0.75960	 0.75960
 0.11319	 0.11319
 0.00468	 0.00468
 0.00436	 0.00436
 0.00436	 0.00436
 0.00468	 0.00468
 0.00468	 0.00468
 0.00403	 0.00403
 0.00468	 0.00468
 0.00436	 0.00436
 0.00468	 0.00468
 0.67148	 0.67148
 0.75664	 0.75664
 0.75533	 0.75533
 0.75631	 0.75631
 0.75598	 0.75598
 0.75697	 0.75697
 0.13324	 0.13324
 0.00534	 0.00534
 0.00468	 0.00468
 0.00468	 0.00468
 0.00403	 0.00403
 0.00436	 0.00436
 0.00436	 0.00436
 0.00436	 0.00436
 0.00403	 0.00403
 0.00436	 0.00436
 0.37261	 0.37261
 0.75335	 0.75335
 0.75434	 0.75434
 0.75500	 0.75500
 0.75500	 0.75500
 0.75368	 0.75368
 0.13818	 0.13818
 0.00468	 0.00468
 0.00436	 0.00436
 0.00403	 0.00403
 0.00403	 0.00403
 0.00468	 0.00468
 0.00436	 0.00436
 0.00468	 0.00468
 0.00468	 0.00468
 0.00403	 0.00403
 0.35124	 0.35124
 0.74020	 0.74020
 0.73921	 0.73921
 0.73790	 0.73790
 0.73658	 0.73658
 0.73527	 0.73527
 0.22728	 0.22728
 0.00534	 0.00534
 0.00403	 0.00403
 0.00436	 0.00436
 0.00468	 0.00468
 0.00468	 0.00468
 0.00501	 0.00501
 0.00468	 0.00468
 0.00403	 0.00403
 0.00436	 0.00436
 0.33184	 0.33184
 0.72113	 0.72113
 0.72080	 0.72080
 0.72080	 0.72080
 0.72376	 0.72376
 0.72442	 0.72442
 0.25161	 0.25161
 0.00501	 0.00501
 0.00436	 0.00436
 0.00403	 0.00403
 0.00403	 0.00403
 0.00403	 0.00403
 0.00403	 0.00403
 0.00468	 0.00468
 0.00436	 0.00436
 0.00468	 0.00468
 0.17763	 0.17763
 0.71719	 0.71719
 0.71751	 0.71751
 0.71456	 0.71456
 0.71061	 0.71061
 0.70831	 0.70831
 0.13193	 0.13193
 0.00468	 0.00468
 0.00403	 0.00403
 0.00436	 0.00436
 0.00436	 0.00436
 0.00403	 0.00403
 0.00436	 0.00436
 0.00436	 0.00436
 0.00436	 0.00436
 0.00436	 0.00436
 0.07669	 0.07669
 0.69844	 0.69844
 0.69844	 0.69844
 0.69877	 0.69877
 0.69976	 0.69976
 0.70042	 0.70042
 0.42982	 0.42982
 0.00600	 0.00600
 0.00468	 0.00468
 0.00436	 0.00436
 0.00403	 0.00403
 0.00403	 0.00403
 0.00403	 0.00403
 0.00403	 0.00403
 0.00403	 0.00403
 0.00403	 0.00403
 0.05729	 0.05729
 0.70403	 0.70403
 0.70436	 0.70436
 0.70502	 0.70502
 0.70568	 0.70568
 0.70535	 0.70535
 0.52352	 0.52352
 0.00731	 0.00731
 0.00468	 0.00468
 0.00436	 0.00436
 0.00436	 0.00436
 0.00403	 0.00403
 0.00468	 0.00468
 0.00436	 0.00436
 0.00468	 0.00468
 0.00468	 0.00468
 0.03230	 0.03230
 0.71686	 0.71686
 0.71817	 0.71817
 0.72047	 0.72047
 0.72080	 0.72080
 0.72245	 0.72245
 0.62216	 0.62216
 0.00863	 0.00863
 0.00501	 0.00501
 0.00468	 0.00468
 0.00436	 0.00436
 0.00468	 0.00468
 0.00468	 0.00468
 0.00468	 0.00468
 0.00468	 0.00468
 0.00436	 0.00436
 0.01882	 0.01882
 0.73856	 0.73856
 0.74480	 0.74480
 0.74579	 0.74579
 0.74711	 0.74711
 0.75007	 0.75007
 0.72508	 0.72508
 0.01718	 0.01718
 0.00468	 0.00468
 0.00436	 0.00436
 0.00403	 0.00403
 0.00436	 0.00436
 0.00436	 0.00436
 0.00403	 0.00403
 0.00468	 0.00468
 0.00436	 0.00436
 0.01093	 0.01093
 0.76092	 0.76092
 0.76946	 0.76946
 0.76946	 0.76946
 0.76914	 0.76914
 0.76914	 0.76914
 0.74086	 0.74086
 0.01685	 0.01685
 0.00468	 0.00468
 0.00436	 0.00436
 0.00534	 0.00534
 0.00436	 0.00436
 0.00468	 0.00468
 0.00436	 0.00436
 0.00468	 0.00468
 0.00436	 0.00436
 0.00436	 0.00436
 0.75237	 0.75237
 0.78623	 0.78623
 0.78821	 0.78821
 0.79018	 0.79018
 0.79116	 0.79116
 0.80300	 0.80300
